# WAVELENGTH    FLUX        
  1710.760986   3.4534E-14  
  1712.131836   3.5483E-14  
  1713.502563   3.286E-14   
  1714.873291   2.8726E-14  
  1716.244141   2.5398E-14  
  1717.61499    2.4086E-14  
  1718.985718   3.2858E-14  
  1720.356567   2.8646E-14  
  1721.727417   3.1711E-14  
  1723.098267   3.1708E-14  
  1724.469238   2.9791E-14  
  1725.840088   2.8755E-14  
  1727.210938   3.8288E-14  
  1728.581909   2.9379E-14  
  1729.952759   3.897E-14   
  1731.32373    3.7406E-14  
  1732.694702   4.162E-14   
  1734.065674   3.3207E-14  
  1735.436646   4.2044E-14  
  1736.807617   4.0332E-14  
  1738.178711   3.8169E-14  
  1739.549683   5.0403E-14  
  1740.920776   4.7748E-14  
  1742.291748   5.3271E-14  
  1743.662842   4.1192E-14  
  1745.033936   3.5659E-14  
  1746.405029   5.5634E-14  
  1747.776123   5.7495E-14  
  1749.147217   4.8619E-14  
  1750.518311   5.6903E-14  
  1751.889526   5.8642E-14  
  1753.26062    5.8497E-14  
  1754.631836   6.4284E-14  
  1756.003052   6.5173E-14  
  1757.374268   5.8891E-14  
  1758.745361   5.2912E-14  
  1760.116577   6.2092E-14  
  1761.487915   6.2283E-14  
  1762.859131   5.8027E-14  
  1764.230347   5.3812E-14  
  1765.601685   5.2909E-14  
  1766.9729     5.8924E-14  
  1768.344238   6.8584E-14  
  1769.715576   6.7914E-14  
  1771.086792   6.6964E-14  
  1772.45813    7.0355E-14  
  1773.829468   6.9193E-14  
  1775.200928   7.9774E-14  
  1776.572266   8.1745E-14  
  1777.943604   7.7774E-14  
  1779.315063   8.1607E-14  
  1780.686401   8.7279E-14  
  1782.057861   7.8159E-14  
  1783.429321   8.024E-14   
  1784.800781   7.9762E-14  
  1786.172241   8.3973E-14  
  1787.543701   7.724E-14   
  1788.915161   8.8138E-14  
  1790.286621   9.0982E-14  
  1791.658203   9.9341E-14  
  1793.029663   9.0164E-14  
  1794.401245   8.9155E-14  
  1795.772705   9.7122E-14  
  1797.144287   9.9393E-14  
  1798.515869   9.0253E-14  
  1799.887451   9.8954E-14  
  1801.259033   1.0603E-13  
  1802.630615   1.0899E-13  
  1804.002197   9.7283E-14  
  1805.373901   9.9542E-14  
  1806.745483   8.1683E-14  
  1808.117188   7.5462E-14  
  1809.48877    8.9E-14     
  1810.860474   9.9282E-14  
  1812.232178   1.035E-13   
  1813.603882   1.0037E-13  
  1814.975586   9.666E-14   
  1816.34729    1.0294E-13  
  1817.718994   9.784E-14   
  1819.090698   9.8153E-14  
  1820.462524   9.3719E-14  
  1821.834229   9.8645E-14  
  1823.206055   1.0558E-13  
  1824.577759   1.1313E-13  
  1825.949585   1.1251E-13  
  1827.321411   1.0327E-13  
  1828.693237   1.0194E-13  
  1830.065063   1.1185E-13  
  1831.43689    1.15E-13    
  1832.808716   1.1452E-13  
  1834.180664   1.1898E-13  
  1835.55249    1.1969E-13  
  1836.924438   1.1097E-13  
  1838.296265   1.1967E-13  
  1839.668213   1.0547E-13  
  1841.040161   9.7485E-14  
  1842.411987   9.8417E-14  
  1843.783936   1.0288E-13  
  1845.155884   9.7283E-14  
  1846.527954   8.6248E-14  
  1847.899902   7.7325E-14  
  1849.271851   8.29E-14    
  1850.643799   8.2052E-14  
  1852.015869   7.8794E-14  
  1853.387817   9.6339E-14  
  1854.759888   1.1361E-13  
  1856.131958   1.2164E-13  
  1857.504028   1.2573E-13  
  1858.876099   1.2022E-13  
  1860.248169   1.2369E-13  
  1861.620239   1.3291E-13  
  1862.99231    1.2484E-13  
  1864.36438    1.2662E-13  
  1865.73645    1.1914E-13  
  1867.108643   1.3802E-13  
  1868.480713   1.4724E-13  
  1869.852905   1.4153E-13  
  1871.225098   1.3937E-13  
  1872.597168   1.3724E-13  
  1873.96936    1.4098E-13  
  1875.341553   1.3367E-13  
  1876.713745   1.2566E-13  
  1878.085938   1.3279E-13  
  1879.45813    1.4366E-13  
  1880.830444   1.4256E-13  
  1882.202637   1.4627E-13  
  1883.574829   1.5109E-13  
  1884.947144   1.5392E-13  
  1886.319336   1.6429E-13  
  1887.69165    1.617E-13   
  1889.063965   1.545E-13   
  1890.436279   1.5527E-13  
  1891.808472   1.5747E-13  
  1893.180786   1.5964E-13  
  1894.553101   1.6171E-13  
  1895.925537   1.6444E-13  
  1897.297852   1.5652E-13  
  1898.670166   1.519E-13   
  1900.04248    1.4217E-13  
  1901.414917   1.3596E-13  
  1902.787231   1.4787E-13  
  1904.159668   1.6258E-13  
  1905.532104   1.6289E-13  
  1906.904419   1.6309E-13  
  1908.276855   1.6731E-13  
  1909.649292   1.6708E-13  
  1911.021729   1.5794E-13  
  1912.394165   1.6545E-13  
  1913.766602   1.7504E-13  
  1915.13916    1.7498E-13  
  1916.511597   1.7857E-13  
  1917.884033   1.8216E-13  
  1919.256592   1.817E-13   
  1920.629028   1.9076E-13  
  1922.001587   1.8663E-13  
  1923.374023   1.8734E-13  
  1924.746582   1.8232E-13  
  1926.119141   1.823E-13   
  1927.491699   1.7947E-13  
  1928.864258   1.7691E-13  
  1930.236816   1.5106E-13  
  1931.609375   1.2415E-13  
  1932.981934   1.3105E-13  
  1934.354492   1.5112E-13  
  1935.727173   1.4599E-13  
  1937.099731   1.4741E-13  
  1938.472412   1.6854E-13  
  1939.844971   1.9994E-13  
  1941.217651   1.9731E-13  
  1942.59021    2.1155E-13  
  1943.962891   2.1257E-13  
  1945.335571   2.0791E-13  
  1946.708252   2.0395E-13  
  1948.080933   2.1283E-13  
  1949.453613   2.1326E-13  
  1950.826294   2.0558E-13  
  1952.198975   2.0522E-13  
  1953.571655   2.0757E-13  
  1954.944458   2.1027E-13  
  1956.317139   2.1018E-13  
  1957.689819   2.1771E-13  
  1959.062622   2.0532E-13  
  1960.435303   2.0572E-13  
  1961.808105   2.0317E-13  
  1963.180908   2.0162E-13  
  1964.553589   2.1479E-13  
  1965.926392   2.2272E-13  
  1967.299194   2.3972E-13  
  1968.671997   2.3146E-13  
  1970.0448     2.378E-13   
  1971.417603   2.2581E-13  
  1972.790405   2.2929E-13  
  1974.16333    2.2769E-13  
  1975.536133   2.23E-13    
  1976.908936   2.2154E-13  
  1978.28186    2.1134E-13  
  1979.654663   2.1218E-13  
  1981.027588   2.141E-13   
  1982.400391   2.2421E-13  
  1983.773315   2.1948E-13  
  1985.14624    2.2019E-13  
  1986.519043   2.1715E-13  
  1987.891968   2.1965E-13  
  1989.264893   2.1012E-13  
  1990.637817   2.1871E-13  
  1992.010742   2.2563E-13  
  1993.383667   2.2898E-13  
  1994.756592   2.2669E-13  
  1996.129639   2.2977E-13  
  1997.502563   2.3938E-13  
  1998.875488   2.3966E-13  
  2000.248535   2.3763E-13  
  2001.62146    2.3282E-13  
  2002.994507   2.3749E-13  
  2004.367432   2.3432E-13  
  2005.740479   2.3344E-13  
  2007.113403   2.4431E-13  
  2008.48645    2.3197E-13  
  2009.859497   2.3912E-13  
  2011.232544   2.4396E-13  
  2012.605591   2.2684E-13  
  2013.978638   2.4521E-13  
  2015.351685   2.4775E-13  
  2016.724731   2.4596E-13  
  2018.097778   2.4177E-13  
  2019.470825   2.5536E-13  
  2020.843872   2.5153E-13  
  2022.217041   2.4698E-13  
  2023.590088   2.4563E-13  
  2024.963135   2.4829E-13  
  2026.336304   2.2453E-13  
  2027.709351   2.188E-13   
  2029.08252    2.5948E-13  
  2030.455688   2.5835E-13  
  2031.828735   2.6626E-13  
  2033.201904   2.6488E-13  
  2034.575073   2.5755E-13  
  2035.948242   2.5279E-13  
  2037.321411   2.6596E-13  
  2038.694458   2.7275E-13  
  2040.067627   2.7114E-13  
  2041.440796   2.597E-13   
  2042.814087   2.6912E-13  
  2044.187256   2.8691E-13  
  2045.560425   2.8541E-13  
  2046.933594   2.9541E-13  
  2048.306885   2.9592E-13  
  2049.679932   2.9283E-13  
  2051.053223   2.9717E-13  
  2052.426514   2.9647E-13  
  2053.799805   2.949E-13   
  2055.172852   2.8711E-13  
  2056.546143   2.7142E-13  
  2057.919434   2.7046E-13  
  2059.292725   2.6985E-13  
  2060.666016   2.7872E-13  
  2062.039307   2.7841E-13  
  2063.412354   2.5687E-13  
  2064.785645   2.7461E-13  
  2066.158936   2.9004E-13  
  2067.532227   2.8485E-13  
  2068.905518   2.9631E-13  
  2070.278809   2.9678E-13  
  2071.6521     3.0568E-13  
  2073.025635   3.1252E-13  
  2074.398926   3.1403E-13  
  2075.772217   3.1526E-13  
  2077.145508   3.266E-13   
  2078.518799   3.2857E-13  
  2079.89209    3.1741E-13  
  2081.265381   3.2267E-13  
  2082.638916   3.1857E-13  
  2084.012207   3.177E-13   
  2085.385498   3.1474E-13  
  2086.759033   3.1723E-13  
  2088.132324   3.2645E-13  
  2089.505615   3.2641E-13  
  2090.87915    3.266E-13   
  2092.252441   3.2175E-13  
  2093.625732   3.2535E-13  
  2094.999268   3.1753E-13  
  2096.372559   3.1498E-13  
  2097.746094   3.2842E-13  
  2099.119385   3.2493E-13  
  2100.49292    3.3058E-13  
  2101.866211   3.1715E-13  
  2103.239746   3.3274E-13  
  2104.613037   3.1223E-13  
  2105.986572   3.3851E-13  
  2107.359863   3.4561E-13  
  2108.733398   3.1906E-13  
  2110.106934   3.0043E-13  
  2111.480225   3.0889E-13  
  2112.85376    3.1744E-13  
  2114.227295   3.2022E-13  
  2115.600586   3.1884E-13  
  2116.974121   3.3627E-13  
  2118.347656   3.6434E-13  
  2119.721191   3.4815E-13  
  2121.094727   3.5826E-13  
  2122.468018   3.501E-13   
  2123.841553   3.159E-13   
  2125.215088   2.6919E-13  
  2126.588623   2.934E-13   
  2127.962158   3.3636E-13  
  2129.335693   3.3356E-13  
  2130.709229   3.2202E-13  
  2132.08252    3.0062E-13  
  2133.456055   2.987E-13   
  2134.82959    2.8855E-13  
  2136.203125   2.7169E-13  
  2137.57666    3.0801E-13  
  2138.950195   3.2665E-13  
  2140.32373    3.136E-13   
  2141.697266   3.2856E-13  
  2143.071045   3.5285E-13  
  2144.44458    3.5274E-13  
  2145.818115   3.4878E-13  
  2147.19165    3.4141E-13  
  2148.565186   3.3572E-13  
  2149.938721   3.4226E-13  
  2151.312256   3.3687E-13  
  2152.685791   3.2373E-13  
  2154.05957    3.4324E-13  
  2155.433105   3.5527E-13  
  2156.806641   3.4816E-13  
  2158.180176   3.4366E-13  
  2159.553711   3.2602E-13  
  2160.92749    3.1184E-13  
  2162.301025   3.4078E-13  
  2163.674561   3.5459E-13  
  2165.04834    3.4889E-13  
  2166.421875   3.3357E-13  
  2167.79541    3.1821E-13  
  2169.169189   3.2065E-13  
  2170.542725   3.2429E-13  
  2171.91626    3.4325E-13  
  2173.290039   3.4247E-13  
  2174.663574   3.3925E-13  
  2176.037109   3.2917E-13  
  2177.410889   3.3482E-13  
  2178.784424   3.3717E-13  
  2180.158203   3.5921E-13  
  2181.531738   3.7916E-13  
  2182.905518   4.038E-13   
  2184.279053   4.0735E-13  
  2185.652832   3.7842E-13  
  2187.026367   3.7506E-13  
  2188.400146   3.4341E-13  
  2189.773682   3.7097E-13  
  2191.147461   3.8854E-13  
  2192.520996   3.8819E-13  
  2193.894775   3.9125E-13  
  2195.268311   4.1909E-13  
  2196.64209    4.2927E-13  
  2198.015625   4.1526E-13  
  2199.389404   4.2277E-13  
  2200.763184   4.2465E-13  
  2202.136719   3.9556E-13  
  2203.510498   4.0961E-13  
  2204.884277   4.2926E-13  
  2206.257812   4.1563E-13  
  2207.631592   3.9657E-13  
  2209.005371   3.7607E-13  
  2210.378906   3.6075E-13  
  2211.752686   3.3508E-13  
  2213.126465   3.1799E-13  
  2214.5        3.7594E-13  
  2215.873779   3.7509E-13  
  2217.247559   3.7726E-13  
  2218.621338   3.4947E-13  
  2219.994873   3.7417E-13  
  2221.368652   4.0114E-13  
  2222.742432   4.0373E-13  
  2224.116211   4.0864E-13  
  2225.489746   4.032E-13   
  2226.863525   4.081E-13   
  2228.237305   4.0564E-13  
  2229.611084   4.0786E-13  
  2230.984863   4.2266E-13  
  2232.358398   4.2811E-13  
  2233.732178   4.362E-13   
  2235.105957   4.4302E-13  
  2236.479736   4.4877E-13  
  2237.853516   4.5306E-13  
  2239.227295   4.5544E-13  
  2240.60083    4.5674E-13  
  2241.974609   4.4395E-13  
  2243.348389   4.2741E-13  
  2244.722168   4.1329E-13  
  2246.095947   4.0047E-13  
  2247.469727   4.1761E-13  
  2248.843506   4.1924E-13  
  2250.217285   4.0409E-13  
  2251.59082    3.8665E-13  
  2252.9646     3.9295E-13  
  2254.338379   4.007E-13   
  2255.712158   3.7057E-13  
  2257.085938   3.8053E-13  
  2258.459717   3.9436E-13  
  2259.833496   4.0657E-13  
  2261.207275   3.8657E-13  
  2262.581055   3.8102E-13  
  2263.954834   4.1102E-13  
  2265.328613   3.9257E-13  
  2266.702393   3.8022E-13  
  2268.076172   3.729E-13   
  2269.449951   3.746E-13   
  2270.82373    3.8422E-13  
  2272.19751    4.0417E-13  
  2273.571289   3.9745E-13  
  2274.945068   4.1352E-13  
  2276.318848   4.0483E-13  
  2277.692627   3.9316E-13  
  2279.066406   4.13E-13    
  2280.440186   4.1889E-13  
  2281.813965   4.2191E-13  
  2283.187744   4.6271E-13  
  2284.561523   4.3901E-13  
  2285.935303   4.3371E-13  
  2287.309082   4.4393E-13  
  2288.682861   4.1007E-13  
  2290.056641   4.2091E-13  
  2291.43042    4.1739E-13  
  2292.804199   4.1782E-13  
  2294.177979   4.2438E-13  
  2295.551758   4.2121E-13  
  2296.925537   4.2625E-13  
  2298.299316   3.7981E-13  
  2299.673096   3.6189E-13  
  2301.046875   3.8518E-13  
  2302.420654   3.992E-13   
  2303.794434   4.187E-13   
  2305.168213   4.0102E-13  
  2306.541992   4.4239E-13  
  2307.915771   4.5142E-13  
  2309.289551   4.4044E-13  
  2310.66333    4.4789E-13  
  2312.037109   4.3313E-13  
  2313.410889   4.0081E-13  
  2314.784668   3.9157E-13  
  2316.158447   4.1996E-13  
  2317.532227   4.3504E-13  
  2318.906006   4.454E-13   
  2320.279785   4.2935E-13  
  2321.653564   4.2613E-13  
  2323.027344   4.332E-13   
  2324.401123   4.5628E-13  
  2325.774902   4.5925E-13  
  2327.148682   4.1831E-13  
  2328.522461   3.987E-13   
  2329.89624    4.2305E-13  
  2331.27002    4.3689E-13  
  2332.643799   3.903E-13   
  2334.017578   3.5258E-13  
  2335.391357   3.7749E-13  
  2336.765137   3.9868E-13  
  2338.138916   4.1194E-13  
  2339.512695   3.4486E-13  
  2340.886475   3.7293E-13  
  2342.260254   3.9237E-13  
  2343.634033   3.8031E-13  
  2345.007812   2.7046E-13  
  2346.381592   2.6671E-13  
  2347.755371   3.1654E-13  
  2349.12915    3.1221E-13  
  2350.50293    3.3706E-13  
  2351.876709   4.1996E-13  
  2353.250488   4.3862E-13  
  2354.624268   4.5072E-13  
  2355.998047   4.1374E-13  
  2357.371582   4.2059E-13  
  2358.745361   4.4301E-13  
  2360.119141   4.0342E-13  
  2361.49292    3.0817E-13  
  2362.866699   3.6445E-13  
  2364.240479   4.1224E-13  
  2365.614258   3.9607E-13  
  2366.988037   3.7325E-13  
  2368.361816   3.9192E-13  
  2369.735596   4.1227E-13  
  2371.109375   4.2279E-13  
  2372.48291    4.4326E-13  
  2373.856689   4.3457E-13  
  2375.230469   3.6002E-13  
  2376.604248   3.8602E-13  
  2377.978027   4.2962E-13  
  2379.351807   4.3807E-13  
  2380.725586   3.5953E-13  
  2382.099121   3.0152E-13  
  2383.4729     1.9938E-13  
  2384.84668    2.3258E-13  
  2386.220459   3.4558E-13  
  2387.594238   4.1393E-13  
  2388.967773   3.8944E-13  
  2390.341553   3.1913E-13  
  2391.715332   4.0437E-13  
  2393.089111   4.404E-13   
  2394.462891   4.4932E-13  
  2395.836426   3.8234E-13  
  2397.210205   2.8507E-13  
  2398.583984   3.403E-13   
  2399.957764   3.7086E-13  
  2401.331299   3.3783E-13  
  2402.705078   4.1891E-13  
  2404.078857   4.0341E-13  
  2405.452393   3.5939E-13  
  2406.826172   2.8013E-13  
  2408.199951   2.9854E-13  
  2409.573486   3.6155E-13  
  2410.947266   3.8769E-13  
  2412.321045   2.8292E-13  
  2413.69458    3.3252E-13  
  2415.068359   3.5123E-13  
  2416.442139   4.2461E-13  
  2417.815674   4.5116E-13  
  2419.189453   4.6449E-13  
  2420.562988   4.8288E-13  
  2421.936768   5.1155E-13  
  2423.310303   5.3233E-13  
  2424.684082   4.8542E-13  
  2426.057861   4.4973E-13  
  2427.431396   4.8033E-13  
  2428.805176   4.9394E-13  
  2430.178711   4.8059E-13  
  2431.55249    4.8213E-13  
  2432.926025   5.1391E-13  
  2434.299805   4.813E-13   
  2435.67334    4.6402E-13  
  2437.046875   4.3209E-13  
  2438.420654   4.5036E-13  
  2439.794189   4.6555E-13  
  2441.167969   4.5725E-13  
  2442.541504   4.9918E-13  
  2443.915039   5.1271E-13  
  2445.288818   5.0082E-13  
  2446.662354   4.8573E-13  
  2448.036133   4.8544E-13  
  2449.409668   4.8779E-13  
  2450.783203   4.8552E-13  
  2452.156982   4.6375E-13  
  2453.530518   4.5861E-13  
  2454.904053   4.7242E-13  
  2456.277588   4.8281E-13  
  2457.651367   4.9392E-13  
  2459.024902   5.0509E-13  
  2460.398438   4.9558E-13  
  2461.771973   4.8847E-13  
  2463.145508   4.5715E-13  
  2464.519287   4.3652E-13  
  2465.892822   4.5778E-13  
  2467.266357   4.7016E-13  
  2468.639893   4.6566E-13  
  2470.013428   4.6807E-13  
  2471.386963   4.7547E-13  
  2472.760498   4.7616E-13  
  2474.134033   4.4569E-13  
  2475.507568   4.7435E-13  
  2476.881104   4.8729E-13  
  2478.254639   4.641E-13   
  2479.628174   4.4804E-13  
  2481.001709   4.1516E-13  
  2482.375244   4.6548E-13  
  2483.748779   4.4806E-13  
  2485.122314   3.5771E-13  
  2486.49585    3.9732E-13  
  2487.869385   4.1732E-13  
  2489.24292    4.103E-13   
  2490.616455   3.8356E-13  
  2491.98999    3.3609E-13  
  2493.363525   3.7697E-13  
  2494.736816   4.4744E-13  
  2496.110352   4.9828E-13  
  2497.483887   5.2349E-13  
  2498.857422   5.1498E-13  
  2500.230713   5.0996E-13  
  2501.604248   5.3302E-13  
  2502.977783   4.7589E-13  
  2504.351318   4.9992E-13  
  2505.724609   4.8871E-13  
  2507.098145   4.5467E-13  
  2508.471436   3.7241E-13  
  2509.844971   4.6019E-13  
  2511.218506   5.1061E-13  
  2512.591797   4.6551E-13  
  2513.965332   4.4467E-13  
  2515.338623   3.8664E-13  
  2516.712158   3.1565E-13  
  2518.085449   2.8552E-13  
  2519.458984   3.2905E-13  
  2520.832275   3.4658E-13  
  2522.205811   4.0798E-13  
  2523.579102   3.7407E-13  
  2524.952393   3.2268E-13  
  2526.325928   3.1516E-13  
  2527.699219   3.3208E-13  
  2529.07251    3.1015E-13  
  2530.446045   2.7251E-13  
  2531.819336   3.583E-13   
  2533.192627   4.3435E-13  
  2534.566162   4.4382E-13  
  2535.939453   4.212E-13   
  2537.312744   4.1059E-13  
  2538.686035   4.109E-13   
  2540.059326   4.1163E-13  
  2541.432617   4.2678E-13  
  2542.805908   4.2312E-13  
  2544.179443   4.4542E-13  
  2545.552734   4.5983E-13  
  2546.926025   4.3788E-13  
  2548.299316   4.4044E-13  
  2549.672607   4.3475E-13  
  2551.045898   3.9459E-13  
  2552.419189   4.6014E-13  
  2553.79248    5.2517E-13  
  2555.165527   5.3033E-13  
  2556.538818   5.4147E-13  
  2557.912109   5.3247E-13  
  2559.2854     5.4002E-13  
  2560.658691   5.5575E-13  
  2562.031982   5.274E-13   
  2563.405029   4.9831E-13  
  2564.77832    4.3985E-13  
  2566.151611   5.1945E-13  
  2567.524658   5.7082E-13  
  2568.897949   5.5009E-13  
  2570.27124    5.5727E-13  
  2571.644287   5.6234E-13  
  2573.017578   5.5123E-13  
  2574.390625   5.7399E-13  
  2575.763916   5.72E-13    
  2577.136963   5.1819E-13  
  2578.510254   5.0612E-13  
  2579.883301   5.5395E-13  
  2581.256592   5.7704E-13  
  2582.629639   5.7946E-13  
  2584.00293    5.4203E-13  
  2585.375977   5.5192E-13  
  2586.749023   4.8232E-13  
  2588.122314   4.6515E-13  
  2589.495361   5.5643E-13  
  2590.868408   6.0943E-13  
  2592.241455   6.1097E-13  
  2593.614502   5.6991E-13  
  2594.987793   5.48E-13    
  2596.36084    5.6564E-13  
  2597.733887   5.7669E-13  
  2599.106934   4.7775E-13  
  2600.47998    3.627E-13   
  2601.853027   3.8805E-13  
  2603.226074   5.5857E-13  
  2604.599121   5.9654E-13  
  2605.972168   5.3323E-13  
  2607.345215   4.6674E-13  
  2608.718262   3.9746E-13  
  2610.091309   4.9328E-13  
  2611.464111   5.1606E-13  
  2612.837158   4.3271E-13  
  2614.210205   3.9301E-13  
  2615.583252   4.1389E-13  
  2616.956055   4.8362E-13  
  2618.329102   5.2499E-13  
  2619.702148   4.864E-13   
  2621.074951   5.5781E-13  
  2622.447998   5.5653E-13  
  2623.820801   5.5562E-13  
  2625.193848   5.7627E-13  
  2626.56665    5.4489E-13  
  2627.939697   4.8723E-13  
  2629.3125     4.9572E-13  
  2630.685547   4.7038E-13  
  2632.05835    4.3695E-13  
  2633.431152   3.9598E-13  
  2634.804199   5.447E-13   
  2636.177002   6.3575E-13  
  2637.549805   6.4393E-13  
  2638.922607   6.6867E-13  
  2640.295654   6.8924E-13  
  2641.668457   6.9401E-13  
  2643.04126    6.9081E-13  
  2644.414062   7.1401E-13  
  2645.786865   7.1756E-13  
  2647.159668   7.047E-13   
  2648.532471   7.0426E-13  
  2649.905273   7.0576E-13  
  2651.278076   7.0791E-13  
  2652.650879   7.0851E-13  
  2654.023682   7.0407E-13  
  2655.39624    7.046E-13   
  2656.769043   7.3206E-13  
  2658.141846   7.1127E-13  
  2659.514648   7.1068E-13  
  2660.887207   6.9265E-13  
  2662.26001    6.822E-13   
  2663.632812   6.5561E-13  
  2665.005371   6.4557E-13  
  2666.378174   6.418E-13   
  2667.750732   6.3768E-13  
  2669.123535   6.3611E-13  
  2670.496094   6.4639E-13  
  2671.868896   6.607E-13   
  2673.241455   6.6459E-13  
  2674.614014   6.4186E-13  
  2675.986816   7.0274E-13  
  2677.359375   7.1022E-13  
  2678.731934   6.7286E-13  
  2680.104492   6.3494E-13  
  2681.477295   6.5654E-13  
  2682.849854   6.8896E-13  
  2684.222412   6.9857E-13  
  2685.594971   6.9068E-13  
  2686.967529   6.8884E-13  
  2688.340088   6.8422E-13  
  2689.712646   6.7174E-13  
  2691.085205   6.4727E-13  
  2692.457764   6.3997E-13  
  2693.830078   6.6712E-13  
  2695.202637   6.7718E-13  
  2696.575195   6.7114E-13  
  2697.947754   6.5819E-13  
  2699.320068   6.5037E-13  
  2700.692627   6.5324E-13  
  2702.065186   6.692E-13   
  2703.4375     6.7644E-13  
  2704.810059   6.8937E-13  
  2706.182373   6.8721E-13  
  2707.554932   6.7282E-13  
  2708.927246   6.6212E-13  
  2710.299805   6.5722E-13  
  2711.672119   6.5454E-13  
  2713.044434   6.5146E-13  
  2714.416992   6.4759E-13  
  2715.789307   6.4316E-13  
  2717.161621   6.2563E-13  
  2718.533936   6.4877E-13  
  2719.90625    6.3151E-13  
  2721.278564   5.9412E-13  
  2722.650879   6.2617E-13  
  2724.023193   6.4547E-13  
  2725.395508   6.358E-13   
  2726.767822   6.194E-13   
  2728.140137   6.2417E-13  
  2729.512451   6.07E-13    
  2730.884766   6.6269E-13  
  2732.25708    6.8496E-13  
  2733.62915    6.6488E-13  
  2735.001465   6.279E-13   
  2736.373779   6.2259E-13  
  2737.74585    6.176E-13   
  2739.118164   5.6293E-13  
  2740.490234   5.8929E-13  
  2741.862549   5.4926E-13  
  2743.234619   5.856E-13   
  2744.606689   5.1225E-13  
  2745.979004   5.3082E-13  
  2747.351074   5.7601E-13  
  2748.723145   4.7028E-13  
  2750.095459   5.3124E-13  
  2751.467529   4.6914E-13  
  2752.8396     5.4768E-13  
  2754.21167    6.2721E-13  
  2755.58374    6.107E-13   
  2756.955811   5.5373E-13  
  2758.327881   5.1189E-13  
  2759.699951   6.2705E-13  
  2761.072021   6.6753E-13  
  2762.444092   6.6706E-13  
  2763.815918   6.2662E-13  
  2765.187988   6.3698E-13  
  2766.560059   6.6818E-13  
  2767.932129   6.7098E-13  
  2769.303955   6.5189E-13  
  2770.676025   6.341E-13   
  2772.047852   6.6932E-13  
  2773.419922   6.8755E-13  
  2774.791748   6.7799E-13  
  2776.163818   6.9868E-13  
  2777.535645   6.7739E-13  
  2778.907471   6.5184E-13  
  2780.279297   6.2222E-13  
  2781.651367   6.1289E-13  
  2783.023193   6.1747E-13  
  2784.39502    6.3136E-13  
  2785.766846   6.3145E-13  
  2787.138672   6.3911E-13  
  2788.510498   6.382E-13   
  2789.882324   5.829E-13   
  2791.25415    5.4143E-13  
  2792.625977   4.3771E-13  
  2793.997803   3.3042E-13  
  2795.369385   2.1157E-13  
  2796.741211   1.2064E-13  
  2798.113037   1.1061E-13  
  2799.484619   1.4185E-13  
  2800.856445   1.982E-13   
  2802.228027   2.1505E-13  
  2803.599854   1.4526E-13  
  2804.971436   1.3166E-13  
  2806.343262   2.2189E-13  
  2807.714844   3.6247E-13  
  2809.086426   4.8668E-13  
  2810.458252   5.8546E-13  
  2811.829834   6.1878E-13  
  2813.201416   6.3768E-13  
  2814.572998   6.539E-13   
  2815.94458    6.8896E-13  
  2817.316162   7.2104E-13  
  2818.687744   7.1466E-13  
  2820.059326   7.1461E-13  
  2821.430908   7.2704E-13  
  2822.802246   7.3712E-13  
  2824.173828   7.331E-13   
  2825.54541    7.4015E-13  
  2826.916992   7.4023E-13  
  2828.28833    7.1944E-13  
  2829.659912   7.334E-13   
  2831.03125    7.2887E-13  
  2832.402832   7.397E-13   
  2833.77417    7.3006E-13  
  2835.145508   7.3578E-13  
  2836.51709    7.2771E-13  
  2837.888428   6.8051E-13  
  2839.259766   7.3801E-13  
  2840.631104   7.3578E-13  
  2842.002441   6.9506E-13  
  2843.373779   7.0279E-13  
  2844.745117   6.9441E-13  
  2846.116455   6.8916E-13  
  2847.487793   7.0188E-13  
  2848.859131   7.1051E-13  
  2850.230469   6.5806E-13  
  2851.601807   6.02E-13    
  2852.9729     4.7379E-13  
  2854.344238   3.5591E-13  
  2855.715332   5.4919E-13  
  2857.08667    6.6479E-13  
  2858.458008   6.772E-13   
  2859.829102   6.9138E-13  
  2861.200195   7.2039E-13  
  2862.571533   7.5114E-13  
  2863.942627   7.3271E-13  
  2865.313721   7.3889E-13  
  2866.684814   7.23E-13    
  2868.055908   7.2464E-13  
  2869.427002   6.8999E-13  
  2870.798096   6.9344E-13  
  2872.169189   7.3204E-13  
  2873.540283   7.5432E-13  
  2874.911377   7.5188E-13  
  2876.282471   7.2207E-13  
  2877.653564   7.0818E-13  
  2879.024414   7.0355E-13  
  2880.395508   7.0408E-13  
  2881.766357   6.9049E-13  
  2883.137451   5.6381E-13  
  2884.508301   6.4819E-13  
  2885.879395   7.3906E-13  
  2887.250244   7.788E-13   
  2888.621094   7.8694E-13  
  2889.992188   7.6745E-13  
  2891.363037   7.4308E-13  
  2892.733887   7.4494E-13  
  2894.104736   7.216E-13   
  2895.475586   7.2308E-13  
  2896.846436   7.4453E-13  
  2898.217285   7.8008E-13  
  2899.588135   7.897E-13   
  2900.958984   7.9752E-13  
  2902.32959    8.3646E-13  
  2903.700439   8.1686E-13  
  2905.071289   8.2534E-13  
  2906.441895   8.4547E-13  
  2907.812744   8.2347E-13  
  2909.18335    7.9599E-13  
  2910.553955   7.7748E-13  
  2911.924805   7.6665E-13  
  2913.29541    7.85E-13    
  2914.666016   8.1233E-13  
  2916.036621   8.2521E-13  
  2917.407227   8.1765E-13  
  2918.778076   8.0042E-13  
  2920.148682   7.8962E-13  
  2921.519043   8.0418E-13  
  2922.889648   8.0368E-13  
  2924.260254   7.9882E-13  
  2925.630859   7.7043E-13  
  2927.001465   7.7213E-13  
  2928.371826   7.6935E-13  
  2929.742432   7.6758E-13  
  2931.112793   7.5295E-13  
  2932.483398   8.1606E-13  
  2933.85376    8.2548E-13  
  2935.224121   8.1209E-13  
  2936.594727   8.0428E-13  
  2937.965088   7.7572E-13  
  2939.335449   7.4751E-13  
  2940.705811   7.6871E-13  
  2942.076172   7.9427E-13  
  2943.446533   7.7556E-13  
  2944.816895   8.235E-13   
  2946.187256   7.7539E-13  
  2947.557617   8.0656E-13  
  2948.927734   7.8881E-13  
  2950.298096   7.4191E-13  
  2951.668457   7.8544E-13  
  2953.038574   8.2141E-13  
  2954.408936   8.2607E-13  
  2955.779053   7.5503E-13  
  2957.149414   8.2869E-13  
  2958.519531   8.2515E-13  
  2959.889648   8.2964E-13  
  2961.259766   8.2134E-13  
  2962.629883   8.2666E-13  
  2964.0        8.4653E-13  
  2965.370117   8.4896E-13  
  2966.740234   7.7317E-13  
  2968.110352   7.6954E-13  
  2969.480469   7.887E-13   
  2970.850586   7.7743E-13  
  2972.220459   7.2297E-13  
  2973.590576   7.9337E-13  
  2974.960693   7.9237E-13  
  2976.330566   8.5035E-13  
  2977.700439   8.2719E-13  
  2979.070557   8.5402E-13  
  2980.44043    8.6058E-13  
  2981.810303   8.2318E-13  
  2983.180176   7.9326E-13  
  2984.550293   7.9587E-13  
  2985.920166   7.4964E-13  
  2987.290039   7.2783E-13  
  2988.659668   7.6509E-13  
  2990.029541   7.9004E-13  
  2991.399414   8.3227E-13  
  2992.769287   8.5178E-13  
  2994.138916   8.4896E-13  
  2995.508789   8.3784E-13  
  2996.878662   8.1735E-13  
  2998.248291   8.5521E-13  
  2999.61792    8.7066E-13  
  3000.987793   8.2667E-13  
  3002.357422   7.7934E-13  
  3003.727051   7.784E-13   
  3005.09668    7.888E-13   
  3006.466309   8.3261E-13  
  3007.835938   8.6701E-13  
  3009.205566   8.1589E-13  
  3010.575195   8.1886E-13  
  3011.944824   8.559E-13   
  3013.314453   8.5796E-13  
  3014.683838   8.5868E-13  
  3016.053467   8.4816E-13  
  3017.422852   8.3076E-13  
  3018.79248    8.1019E-13  
  3020.161865   7.8488E-13  
  3021.53125    7.5689E-13  
  3022.900879   7.0499E-13  
  3024.270264   8.3839E-13  
  3025.639648   8.5336E-13  
  3027.009033   8.2432E-13  
  3028.378418   8.2814E-13  
  3029.747803   8.9028E-13  
  3031.117188   8.7877E-13  
  3032.486328   8.4292E-13  
  3033.855713   8.4716E-13  
  3035.225098   8.775E-13   
  3036.594238   8.8872E-13  
  3037.963623   8.8795E-13  
  3039.332764   8.288E-13   
  3040.702148   8.7306E-13  
  3042.071289   8.6878E-13  
  3043.44043    8.2061E-13  
  3044.80957    8.4333E-13  
  3046.178711   8.6422E-13  
  3047.547852   8.7538E-13  
  3048.916992   8.5445E-13  
  3050.286133   8.4627E-13  
  3051.655273   8.7098E-13  
  3053.024414   8.8666E-13  
  3054.393311   9.0156E-13  
  3055.762451   8.5893E-13  
  3057.131348   8.5543E-13  
  3058.500488   8.2863E-13  
  3059.869385   7.7722E-13  
  3061.238281   8.0229E-13  
  3067.572754   7.9657E-13  
  3070.318604   8.3212E-13  
  3073.064697   8.3413E-13  
  3075.810547   8.3881E-13  
  3078.556396   8.4946E-13  
  3081.30249    8.5501E-13  
  3084.04834    8.605E-13   
  3086.794434   8.5263E-13  
  3089.540527   8.2207E-13  
  3092.286621   7.947E-13   
  3095.032471   7.9545E-13  
  3097.778564   7.9553E-13  
  3100.524658   7.7423E-13  
  3103.270752   8.0487E-13  
  3106.01709    8.4492E-13  
  3108.763184   8.7939E-13  
  3111.509277   8.7454E-13  
  3114.255371   8.6757E-13  
  3117.001709   8.5661E-13  
  3119.747803   8.3056E-13  
  3122.494141   8.3362E-13  
  3125.240479   8.3456E-13  
  3127.986572   8.523E-13   
  3130.73291    8.4541E-13  
  3133.479248   8.529E-13   
  3136.225586   8.732E-13   
  3138.971924   8.8419E-13  
  3141.718262   8.6676E-13  
  3144.4646     8.2635E-13  
  3147.210938   8.4638E-13  
  3149.95752    8.801E-13   
  3152.703857   8.816E-13   
  3155.450195   8.6592E-13  
  3158.196777   8.388E-13   
  3160.943115   8.2271E-13  
  3163.689697   8.4278E-13  
  3166.436279   8.7353E-13  
  3169.182861   8.8852E-13  
  3171.929199   9.1102E-13  
  3174.675781   9.2027E-13  
  3177.422363   8.8754E-13  
  3180.168945   8.3743E-13  
  3182.915527   8.4325E-13  
  3185.662109   8.626E-13   
  3188.408936   8.7834E-13  
  3191.155518   8.6749E-13  
  3193.9021     8.5152E-13  
  3196.648926   8.5817E-13  
  3199.395508   8.841E-13   
  3202.142334   9.0406E-13  
  3204.888916   9.2652E-13  
  3207.635742   9.2204E-13  
  3210.382568   8.7747E-13  
  3213.12915    8.5765E-13  
  3215.875977   8.5967E-13  
  3218.622803   8.7744E-13  
  3221.369629   8.9382E-13  
  3224.116455   8.8075E-13  
  3226.863281   8.6586E-13  
  3229.610107   8.3895E-13  
  3232.356934   8.4141E-13  
  3235.104004   8.4454E-13  
  3237.85083    8.5934E-13  
  3240.597656   8.8335E-13  
  3243.344727   9.017E-13   
  3246.091553   9.131E-13   
  3248.838623   8.9055E-13  
  3251.585693   8.958E-13   
  3254.33252    9.0882E-13  
  3257.07959    9.3846E-13  
  3259.82666    9.5582E-13  
  3262.57373    9.4866E-13  
  3265.320801   9.5064E-13  
  3268.067627   9.5875E-13  
  3270.814941   9.486E-13   
  3273.562012   9.3864E-13  
  3276.309082   9.2982E-13  
  3279.056152   9.1516E-13  
  3281.803223   9.2365E-13  
  3284.550293   9.3781E-13  
  3287.297607   9.4013E-13  
  3290.044678   9.4316E-13  
  3292.791992   9.6308E-13  
  3295.539062   9.7798E-13  
  3298.286377   9.7884E-13  
  3301.033447   9.7423E-13  
  3303.780762   9.4888E-13  
  3306.528076   9.3413E-13  
  3309.275391   9.3941E-13  
  3312.022461   9.4987E-13  
  3314.769775   9.3971E-13  
  3317.51709    9.3196E-13  
  3320.264404   9.362E-13   
  3323.011719   9.1588E-13  
  3325.759033   9.2748E-13  
  3328.506592   9.2306E-13  
  3331.253906   9.2944E-13  
  3334.001221   9.3424E-13  
  3336.748535   9.2058E-13  
  3339.496094   9.1515E-13  
  3342.243408   9.1374E-13  
  3344.990967   9.2533E-13  
  3347.738281   9.178E-13   
  3350.48584    9.0035E-13  
  3353.233154   9.2891E-13  
  3355.980713   9.2575E-13  
  3358.728271   8.4144E-13  
  3361.475586   7.5372E-13  
  3364.223145   8.3856E-13  
  3366.970703   8.9591E-13  
  3369.718262   8.6143E-13  
  3372.46582    8.3343E-13  
  3375.213379   8.8029E-13  
  3377.960938   9.173E-13   
  3380.708496   8.9236E-13  
  3383.456055   9.05E-13    
  3386.203613   9.2259E-13  
  3388.951172   9.2117E-13  
  3391.698975   9.1963E-13  
  3394.446533   9.1108E-13  
  3397.194092   9.4535E-13  
  3399.941895   9.6787E-13  
  3402.689453   9.5829E-13  
  3405.437256   9.3072E-13  
  3408.184814   9.2323E-13  
  3410.932617   9.2934E-13  
  3413.680176   9.2481E-13  
  3416.427979   9.3757E-13  
  3419.175781   9.5714E-13  
  3421.92334    9.6888E-13  
  3424.671143   9.593E-13   
  3427.418945   9.6591E-13  
  3430.166748   9.8912E-13  
  3432.914551   9.8311E-13  
  3435.662354   9.794E-13   
  3438.410156   9.6703E-13  
  3441.157959   9.3258E-13  
  3443.905762   9.1443E-13  
  3446.653564   9.4446E-13  
  3449.401367   9.7346E-13  
  3452.14917    9.7717E-13  
  3454.897217   9.7009E-13  
  3457.64502    9.8709E-13  
  3460.392822   9.7343E-13  
  3463.140625   9.682E-13   
  3465.888672   9.8135E-13  
  3468.636475   9.8215E-13  
  3471.384521   1.0042E-12  
  3474.132324   9.7264E-13  
  3476.880371   9.454E-13   
  3479.628174   9.7904E-13  
  3482.376221   1.0024E-12  
  3485.124268   9.9428E-13  
  3487.87207    1.0007E-12  
  3490.620117   9.7961E-13  
  3493.368164   9.7325E-13  
  3496.115967   9.675E-13   
  3498.864014   9.7078E-13  
  3501.612061   9.8223E-13  
  3504.360107   9.9342E-13  
  3507.108154   9.9007E-13  
  3509.856201   9.8817E-13  
  3512.604248   9.7376E-13  
  3515.352295   9.737E-13   
  3518.100342   9.9748E-13  
  3520.848389   9.9495E-13  
  3523.596436   9.7303E-13  
  3526.344482   9.4909E-13  
  3529.092773   9.5657E-13  
  3531.84082    9.9479E-13  
  3534.588867   1.0058E-12  
  3537.336914   1.0156E-12  
  3540.085205   1.0214E-12  
  3542.833252   1.0227E-12  
  3545.581299   1.0324E-12  
  3548.32959    1.0337E-12  
  3551.077637   1.039E-12   
  3553.825928   1.0272E-12  
  3556.573975   1.0083E-12  
  3559.322266   1.0091E-12  
  3562.070312   1.022E-12   
  3564.818604   1.0139E-12  
  3567.56665    9.7902E-13  
  3570.314941   9.5672E-13  
  3573.063232   9.4848E-13  
  3575.811279   9.6814E-13  
  3578.55957    9.7829E-13  
  3581.307861   9.7419E-13  
  3584.055908   9.6185E-13  
  3586.804199   9.2929E-13  
  3589.55249    9.3428E-13  
  3592.300781   9.8566E-13  
  3595.049072   1.0012E-12  
  3597.797363   1.0151E-12  
  3600.545654   1.0259E-12  
  3603.293945   1.0128E-12  
  3606.042236   9.897E-13   
  3608.790527   9.8721E-13  
  3611.538818   9.8152E-13  
  3614.287109   9.8472E-13  
  3617.0354     9.9897E-13  
  3619.783691   9.873E-13   
  3622.531982   9.9265E-13  
  3625.280273   1.0167E-12  
  3628.028564   1.0357E-12  
  3630.776855   1.0208E-12  
  3633.525391   9.8356E-13  
  3636.273682   1.0033E-12  
  3639.021973   1.0289E-12  
  3641.770264   1.0335E-12  
  3644.518799   9.9983E-13  
  3647.26709    1.0035E-12  
  3650.015381   9.9914E-13  
  3652.763916   1.0155E-12  
  3655.512207   1.0457E-12  
  3658.260498   1.0568E-12  
  3661.009033   1.0577E-12  
  3663.757324   1.0564E-12  
  3666.505859   1.0556E-12  
  3669.25415    1.0582E-12  
  3672.002686   1.0561E-12  
  3674.750977   1.0586E-12  
  3677.499512   1.0442E-12  
  3680.247803   1.0333E-12  
  3682.996338   1.0279E-12  
  3685.744629   1.0168E-12  
  3688.493164   1.0086E-12  
  3691.241455   1.044E-12   
  3693.98999    1.066E-12   
  3696.738525   1.0694E-12  
  3699.486816   1.0674E-12  
  3702.235352   1.0917E-12  
  3704.983887   1.039E-12   
  3707.732178   1.0156E-12  
  3710.480713   1.0434E-12  
  3713.229248   1.0237E-12  
  3715.977783   1.0964E-12  
  3718.726074   1.1344E-12  
  3721.474609   1.0517E-12  
  3724.223145   1.0067E-12  
  3726.97168    1.1004E-12  
  3729.720215   1.1492E-12  
  3732.468506   1.104E-12   
  3735.217041   9.7856E-13  
  3737.965576   9.8579E-13  
  3740.714111   1.1007E-12  
  3743.462646   1.1826E-12  
  3746.211182   1.1337E-12  
  3748.959473   1.0438E-12  
  3751.708008   9.9405E-13  
  3754.456543   1.0895E-12  
  3757.205078   1.1971E-12  
  3759.953613   1.1975E-12  
  3762.702148   1.2152E-12  
  3765.450684   1.2192E-12  
  3768.199219   1.1688E-12  
  3770.947754   1.0684E-12  
  3773.696289   1.0473E-12  
  3776.444824   1.1824E-12  
  3779.193359   1.2883E-12  
  3781.941895   1.3393E-12  
  3784.69043    1.3568E-12  
  3787.438965   1.3319E-12  
  3790.1875     1.3041E-12  
  3792.936035   1.271E-12   
  3795.68457    1.1777E-12  
  3798.433105   1.0342E-12  
  3801.181641   1.0363E-12  
  3803.930176   1.1932E-12  
  3806.678711   1.2838E-12  
  3809.427246   1.3153E-12  
  3812.175781   1.3565E-12  
  3814.924316   1.3377E-12  
  3817.672852   1.3185E-12  
  3820.421631   1.3401E-12  
  3823.170166   1.3219E-12  
  3825.918701   1.2795E-12  
  3828.667236   1.2425E-12  
  3831.415771   1.1833E-12  
  3834.164307   1.0633E-12  
  3836.912842   9.4729E-13  
  3839.661377   1.0153E-12  
  3842.409912   1.1623E-12  
  3845.158447   1.2786E-12  
  3847.906982   1.3387E-12  
  3850.655762   1.3732E-12  
  3853.404297   1.3871E-12  
  3856.152832   1.4014E-12  
  3858.901367   1.3903E-12  
  3861.649902   1.3794E-12  
  3864.398438   1.4141E-12  
  3867.146973   1.4244E-12  
  3869.895508   1.4208E-12  
  3872.644043   1.3929E-12  
  3875.392822   1.3539E-12  
  3878.141357   1.3478E-12  
  3880.889893   1.3056E-12  
  3883.638428   1.2885E-12  
  3886.386963   1.2037E-12  
  3889.135498   1.0614E-12  
  3891.884033   1.0192E-12  
  3894.632568   1.1546E-12  
  3897.381104   1.2482E-12  
  3900.129639   1.2979E-12  
  3902.878174   1.326E-12   
  3905.626953   1.3428E-12  
  3908.375488   1.3666E-12  
  3911.124023   1.4182E-12  
  3913.872559   1.4244E-12  
  3916.621094   1.4166E-12  
  3919.369629   1.393E-12   
  3922.118164   1.3673E-12  
  3924.866699   1.3635E-12  
  3927.615234   1.3391E-12  
  3930.36377    1.1983E-12  
  3933.112305   9.1878E-13  
  3935.86084    7.2228E-13  
  3938.609375   9.7848E-13  
  3941.35791    1.247E-12   
  3944.106445   1.3413E-12  
  3946.85498    1.3635E-12  
  3949.603516   1.3754E-12  
  3952.352051   1.3856E-12  
  3955.100586   1.3872E-12  
  3957.849121   1.3634E-12  
  3960.597656   1.342E-12   
  3963.346191   1.2681E-12  
  3966.094727   1.1116E-12  
  3968.843018   8.4282E-13  
  3971.591553   7.3186E-13  
  3974.340088   9.7096E-13  
  3977.088623   1.2034E-12  
  3979.837158   1.308E-12   
  3982.585693   1.3622E-12  
  3985.334229   1.3968E-12  
  3988.08252    1.4192E-12  
  3990.831055   1.429E-12   
  3993.57959    1.4584E-12  
  3996.328125   1.4575E-12  
  3999.07666    1.4462E-12  
  4001.824951   1.4666E-12  
  4004.573486   1.4745E-12  
  4007.322021   1.4552E-12  
  4010.070557   1.47E-12    
  4012.818848   1.479E-12   
  4015.567383   1.4844E-12  
  4018.315918   1.4876E-12  
  4021.064209   1.4966E-12  
  4023.812744   1.4892E-12  
  4026.561279   1.4879E-12  
  4029.30957    1.4746E-12  
  4032.058105   1.4523E-12  
  4034.806396   1.4463E-12  
  4037.554932   1.4728E-12  
  4040.303223   1.499E-12   
  4043.051758   1.4898E-12  
  4045.800049   1.4616E-12  
  4048.548584   1.4646E-12  
  4051.296875   1.4852E-12  
  4054.04541    1.4938E-12  
  4056.793701   1.4814E-12  
  4059.542236   1.4764E-12  
  4062.290527   1.4737E-12  
  4065.039062   1.4489E-12  
  4067.787354   1.4481E-12  
  4070.535645   1.4598E-12  
  4073.28418    1.4487E-12  
  4076.032471   1.4508E-12  
  4078.780762   1.4326E-12  
  4081.529053   1.441E-12   
  4084.277588   1.4575E-12  
  4087.025879   1.4428E-12  
  4089.77417    1.4376E-12  
  4092.522461   1.4194E-12  
  4095.270752   1.3718E-12  
  4098.019043   1.3155E-12  
  4100.767578   1.1966E-12  
  4103.515625   1.0562E-12  
  4106.26416    1.1518E-12  
  4109.012207   1.2776E-12  
  4111.760742   1.3532E-12  
  4114.508789   1.4028E-12  
  4117.257324   1.426E-12   
  4120.005371   1.4264E-12  
  4122.753906   1.4371E-12  
  4125.501953   1.4543E-12  
  4128.250488   1.4645E-12  
  4130.998535   1.463E-12   
  4133.746582   1.4512E-12  
  4136.495117   1.4573E-12  
  4139.243164   1.4821E-12  
  4141.991699   1.4865E-12  
  4144.739746   1.465E-12   
  4147.487793   1.4681E-12  
  4150.236328   1.476E-12   
  4152.984375   1.4742E-12  
  4155.732422   1.4598E-12  
  4158.480469   1.4597E-12  
  4161.229004   1.47E-12    
  4163.977051   1.4799E-12  
  4166.725098   1.4819E-12  
  4169.473145   1.4819E-12  
  4172.22168    1.4666E-12  
  4174.969727   1.4433E-12  
  4177.717773   1.4395E-12  
  4180.46582    1.447E-12   
  4183.213867   1.4601E-12  
  4185.961914   1.452E-12   
  4188.710449   1.4443E-12  
  4191.458496   1.4513E-12  
  4194.206543   1.4624E-12  
  4196.95459    1.4537E-12  
  4199.702637   1.4375E-12  
  4202.450684   1.4288E-12  
  4205.19873    1.4417E-12  
  4207.946777   1.4524E-12  
  4210.694824   1.4591E-12  
  4213.442871   1.4554E-12  
  4216.190918   1.4444E-12  
  4218.938965   1.4393E-12  
  4221.687012   1.4441E-12  
  4224.435059   1.44E-12    
  4227.182617   1.4133E-12  
  4229.930664   1.3994E-12  
  4232.678711   1.4413E-12  
  4235.426758   1.4355E-12  
  4238.174805   1.4328E-12  
  4240.922852   1.4431E-12  
  4243.67041    1.4527E-12  
  4246.418457   1.445E-12   
  4249.166504   1.428E-12   
  4251.914551   1.4185E-12  
  4254.662109   1.4278E-12  
  4257.410156   1.4281E-12  
  4260.158203   1.4444E-12  
  4262.905762   1.4408E-12  
  4265.653809   1.4542E-12  
  4268.401367   1.4552E-12  
  4271.149414   1.4339E-12  
  4273.897461   1.4102E-12  
  4276.64502    1.4155E-12  
  4279.393066   1.4364E-12  
  4282.140625   1.4355E-12  
  4284.888672   1.4175E-12  
  4287.63623    1.4157E-12  
  4290.383789   1.3911E-12  
  4293.131836   1.3784E-12  
  4295.879395   1.388E-12   
  4298.627441   1.3818E-12  
  4301.375      1.3394E-12  
  4304.122559   1.3317E-12  
  4306.870605   1.3414E-12  
  4309.618164   1.3333E-12  
  4312.365723   1.347E-12   
  4315.11377    1.363E-12   
  4317.861328   1.3817E-12  
  4320.608887   1.401E-12   
  4323.356445   1.3954E-12  
  4326.104004   1.3664E-12  
  4328.851562   1.3514E-12  
  4331.599609   1.3686E-12  
  4334.347168   1.3489E-12  
  4337.094727   1.2835E-12  
  4339.842285   1.1583E-12  
  4342.589844   1.0352E-12  
  4345.337402   1.1298E-12  
  4348.084961   1.2577E-12  
  4350.83252    1.3325E-12  
  4353.580078   1.3413E-12  
  4356.327637   1.3696E-12  
  4359.074707   1.4055E-12  
  4361.822266   1.4201E-12  
  4364.569824   1.4297E-12  
  4367.317383   1.4275E-12  
  4370.064941   1.4166E-12  
  4372.812012   1.4233E-12  
  4375.55957    1.4166E-12  
  4378.307129   1.4108E-12  
  4381.054688   1.427E-12   
  4383.801758   1.4184E-12  
  4386.549316   1.3954E-12  
  4389.296875   1.4093E-12  
  4392.043945   1.428E-12   
  4394.791504   1.4301E-12  
  4397.538574   1.4149E-12  
  4400.286133   1.4203E-12  
  4403.033203   1.4187E-12  
  4405.780762   1.4144E-12  
  4408.527832   1.421E-12   
  4411.275391   1.4257E-12  
  4414.022461   1.4355E-12  
  4416.769531   1.4226E-12  
  4419.51709    1.4188E-12  
  4422.26416    1.4251E-12  
  4425.01123    1.4245E-12  
  4427.758301   1.4293E-12  
  4430.505859   1.4321E-12  
  4433.25293    1.4358E-12  
  4436.0        1.4282E-12  
  4438.74707    1.426E-12   
  4441.494141   1.4404E-12  
  4444.241211   1.4169E-12  
  4446.988281   1.4152E-12  
  4449.735352   1.406E-12   
  4452.482422   1.4194E-12  
  4455.229492   1.4161E-12  
  4457.976562   1.403E-12   
  4460.723633   1.4093E-12  
  4463.470703   1.4106E-12  
  4466.217773   1.4191E-12  
  4468.964844   1.4037E-12  
  4471.711426   1.4043E-12  
  4474.458496   1.4187E-12  
  4477.205566   1.4281E-12  
  4479.952637   1.4302E-12  
  4482.699219   1.4217E-12  
  4485.446289   1.4139E-12  
  4488.193359   1.4286E-12  
  4490.939941   1.4241E-12  
  4493.687012   1.4217E-12  
  4496.433594   1.4234E-12  
  4499.180664   1.4261E-12  
  4501.927246   1.4248E-12  
  4504.674316   1.4283E-12  
  4507.420898   1.4371E-12  
  4510.16748    1.4388E-12  
  4512.914551   1.4418E-12  
  4515.661133   1.4329E-12  
  4518.407715   1.4253E-12  
  4521.154785   1.4243E-12  
  4523.901367   1.404E-12   
  4526.647949   1.4089E-12  
  4529.394531   1.3986E-12  
  4532.141113   1.3864E-12  
  4534.887695   1.3899E-12  
  4537.634277   1.3949E-12  
  4540.380859   1.412E-12   
  4543.127441   1.4219E-12  
  4545.874023   1.4109E-12  
  4548.620605   1.3981E-12  
  4551.367188   1.3865E-12  
  4554.11377    1.383E-12   
  4556.860352   1.3853E-12  
  4559.606934   1.4005E-12  
  4562.353027   1.4103E-12  
  4565.099609   1.4114E-12  
  4567.846191   1.4217E-12  
  4570.592285   1.4211E-12  
  4573.338867   1.4132E-12  
  4576.085449   1.4141E-12  
  4578.831543   1.4159E-12  
  4581.578125   1.4108E-12  
  4584.324219   1.4045E-12  
  4587.070801   1.3964E-12  
  4589.816895   1.3981E-12  
  4592.562988   1.4017E-12  
  4595.30957    1.4067E-12  
  4598.055664   1.4073E-12  
  4600.801758   1.4113E-12  
  4603.54834    1.4098E-12  
  4606.294434   1.4065E-12  
  4609.040527   1.4075E-12  
  4611.786621   1.4141E-12  
  4614.532715   1.4178E-12  
  4617.278809   1.4118E-12  
  4620.024902   1.4099E-12  
  4622.770996   1.4103E-12  
  4625.51709    1.4115E-12  
  4628.263184   1.4061E-12  
  4631.009277   1.406E-12   
  4633.755371   1.4075E-12  
  4636.500977   1.4064E-12  
  4639.24707    1.4086E-12  
  4641.993164   1.4149E-12  
  4644.739258   1.4009E-12  
  4647.484863   1.3981E-12  
  4650.230957   1.3987E-12  
  4652.976562   1.396E-12   
  4655.722656   1.3997E-12  
  4658.46875    1.3966E-12  
  4661.214355   1.3962E-12  
  4663.959961   1.4056E-12  
  4666.706055   1.4052E-12  
  4669.45166    1.3936E-12  
  4672.197266   1.3951E-12  
  4674.943359   1.3963E-12  
  4677.688965   1.4028E-12  
  4680.43457    1.4004E-12  
  4683.180176   1.3985E-12  
  4685.925781   1.3896E-12  
  4688.671387   1.3829E-12  
  4691.416992   1.3987E-12  
  4694.162598   1.4008E-12  
  4696.908203   1.3999E-12  
  4699.653809   1.4012E-12  
  4702.399414   1.3914E-12  
  4705.14502    1.3816E-12  
  4707.890625   1.38E-12    
  4710.635742   1.3868E-12  
  4713.381348   1.3848E-12  
  4716.126953   1.3912E-12  
  4718.87207    1.3868E-12  
  4721.617676   1.3936E-12  
  4724.363281   1.3858E-12  
  4727.108398   1.3843E-12  
  4729.854004   1.389E-12   
  4732.599121   1.387E-12   
  4735.344238   1.3884E-12  
  4738.089844   1.3813E-12  
  4740.834961   1.3782E-12  
  4743.580078   1.379E-12   
  4746.325195   1.3862E-12  
  4749.070801   1.3902E-12  
  4751.815918   1.3885E-12  
  4754.561035   1.3843E-12  
  4757.306152   1.3839E-12  
  4760.05127    1.3817E-12  
  4762.796387   1.3779E-12  
  4765.541504   1.3727E-12  
  4768.286621   1.3736E-12  
  4771.03125    1.3772E-12  
  4773.776367   1.3723E-12  
  4776.521484   1.3781E-12  
  4779.266602   1.3766E-12  
  4782.01123    1.3766E-12  
  4784.756348   1.3731E-12  
  4787.500977   1.3666E-12  
  4790.246094   1.3657E-12  
  4792.990723   1.3652E-12  
  4795.73584    1.367E-12   
  4798.480469   1.3732E-12  
  4801.225098   1.3666E-12  
  4803.970215   1.3652E-12  
  4806.714844   1.3654E-12  
  4809.459473   1.3629E-12  
  4812.204102   1.3665E-12  
  4814.94873    1.364E-12   
  4817.693359   1.3552E-12  
  4820.437988   1.3561E-12  
  4823.182617   1.3605E-12  
  4825.927246   1.3606E-12  
  4828.671875   1.3582E-12  
  4831.416504   1.3557E-12  
  4834.161133   1.353E-12   
  4836.905762   1.3504E-12  
  4839.649902   1.348E-12   
  4842.394531   1.3456E-12  
  4845.138672   1.3382E-12  
  4847.883301   1.323E-12   
  4850.62793    1.3116E-12  
  4853.37207    1.2986E-12  
  4856.116211   1.2647E-12  
  4858.86084    1.1936E-12  
  4861.60498    1.0691E-12  
  4864.349121   9.9275E-13  
  4867.09375    1.1045E-12  
  4869.837891   1.2033E-12  
  4872.582031   1.2464E-12  
  4875.326172   1.2631E-12  
  4878.070312   1.2805E-12  
  4880.814453   1.3017E-12  
  4883.558594   1.3154E-12  
  4886.302734   1.3147E-12  
  4889.046387   1.3181E-12  
  4891.790527   1.3161E-12  
  4894.534668   1.3192E-12  
  4897.278809   1.3282E-12  
  4900.022461   1.3361E-12  
  4902.766602   1.34E-12    
  4905.510254   1.3358E-12  
  4908.254395   1.3371E-12  
  4910.998047   1.3309E-12  
  4913.742188   1.3353E-12  
  4916.48584    1.3394E-12  
  4919.229492   1.319E-12   
  4921.973145   1.31E-12    
  4924.717285   1.3151E-12  
  4927.460938   1.3208E-12  
  4930.20459    1.3336E-12  
  4932.948242   1.3324E-12  
  4935.691895   1.3236E-12  
  4938.435547   1.3229E-12  
  4941.179199   1.3243E-12  
  4943.922363   1.3327E-12  
  4946.666016   1.3373E-12  
  4949.409668   1.3403E-12  
  4952.15332    1.3373E-12  
  4954.896484   1.332E-12   
  4957.640137   1.3258E-12  
  4960.383301   1.3106E-12  
  4963.126953   1.3204E-12  
  4965.870117   1.3274E-12  
  4968.613281   1.326E-12   
  4971.356934   1.3278E-12  
  4974.100098   1.3311E-12  
  4976.843262   1.3334E-12  
  4979.586426   1.3318E-12  
  4982.32959    1.3249E-12  
  4985.072754   1.3171E-12  
  4987.815918   1.3137E-12  
  4990.559082   1.3152E-12  
  4993.302246   1.3178E-12  
  4996.04541    1.3228E-12  
  4998.788574   1.3178E-12  
  5001.53125    1.3164E-12  
  5004.274414   1.3074E-12  
  5007.017578   1.3051E-12  
  5009.760254   1.3019E-12  
  5012.503418   1.3044E-12  
  5015.246094   1.2994E-12  
  5017.98877    1.2979E-12  
  5020.731934   1.2976E-12  
  5023.474609   1.3044E-12  
  5026.217285   1.3018E-12  
  5028.959961   1.3128E-12  
  5031.702637   1.3083E-12  
  5034.445312   1.3134E-12  
  5037.187988   1.3173E-12  
  5039.930664   1.3042E-12  
  5042.67334    1.3002E-12  
  5045.416016   1.3005E-12  
  5048.158691   1.3096E-12  
  5050.900879   1.3067E-12  
  5053.643555   1.3046E-12  
  5056.38623    1.3088E-12  
  5059.128418   1.3126E-12  
  5061.871094   1.3129E-12  
  5064.613281   1.3106E-12  
  5067.355469   1.3104E-12  
  5070.098145   1.3063E-12  
  5072.840332   1.3058E-12  
  5075.58252    1.3047E-12  
  5078.324707   1.3026E-12  
  5081.066895   1.2979E-12  
  5083.809082   1.2894E-12  
  5086.55127    1.3E-12     
  5089.293457   1.3037E-12  
  5092.035645   1.3059E-12  
  5094.777832   1.3002E-12  
  5097.519531   1.2994E-12  
  5100.261719   1.2944E-12  
  5103.003906   1.2959E-12  
  5105.745605   1.2988E-12  
  5108.487793   1.2947E-12  
  5111.229492   1.2879E-12  
  5113.971191   1.2907E-12  
  5116.713379   1.2938E-12  
  5119.455078   1.2975E-12  
  5122.196777   1.2972E-12  
  5124.938477   1.2963E-12  
  5127.680176   1.2835E-12  
  5130.421875   1.2863E-12  
  5133.163574   1.2843E-12  
  5135.905273   1.2812E-12  
  5138.646973   1.2774E-12  
  5141.388672   1.2707E-12  
  5144.129883   1.2743E-12  
  5146.871582   1.282E-12   
  5149.612793   1.2851E-12  
  5152.354492   1.2825E-12  
  5155.095703   1.2827E-12  
  5157.837402   1.2864E-12  
  5160.578613   1.2814E-12  
  5163.319824   1.2722E-12  
  5166.061523   1.2623E-12  
  5168.802734   1.23E-12    
  5171.543945   1.2095E-12  
  5174.285156   1.2152E-12  
  5177.026367   1.237E-12   
  5179.767578   1.263E-12   
  5182.508301   1.2642E-12  
  5185.249512   1.2415E-12  
  5187.990723   1.2334E-12  
  5190.731445   1.2454E-12  
  5193.472656   1.2473E-12  
  5196.213867   1.2468E-12  
  5198.95459    1.2564E-12  
  5201.695312   1.2604E-12  
  5204.436523   1.2558E-12  
  5207.177246   1.248E-12   
  5209.917969   1.245E-12   
  5212.658691   1.2525E-12  
  5215.399414   1.2614E-12  
  5218.140137   1.2604E-12  
  5220.880859   1.2649E-12  
  5223.621582   1.2704E-12  
  5226.362305   1.2614E-12  
  5229.103027   1.2413E-12  
  5231.843262   1.2427E-12  
  5234.583984   1.2473E-12  
  5237.324219   1.2524E-12  
  5240.064941   1.2649E-12  
  5242.805176   1.269E-12   
  5245.545898   1.2644E-12  
  5248.286133   1.2669E-12  
  5251.026367   1.2637E-12  
  5253.766602   1.2613E-12  
  5256.506836   1.2632E-12  
  5259.24707    1.2653E-12  
  5261.987305   1.2595E-12  
  5264.727539   1.2445E-12  
  5267.467773   1.234E-12   
  5270.208008   1.2184E-12  
  5272.947754   1.2149E-12  
  5275.687988   1.2322E-12  
  5278.427734   1.2433E-12  
  5281.167969   1.2494E-12  
  5283.907715   1.2456E-12  
  5286.647949   1.2493E-12  
  5289.387695   1.2555E-12  
  5292.127441   1.257E-12   
  5294.867188   1.2534E-12  
  5297.606934   1.2582E-12  
  5300.34668    1.2513E-12  
  5303.086426   1.2503E-12  
  5305.826172   1.2482E-12  
  5308.565918   1.2515E-12  
  5311.305176   1.2497E-12  
  5314.044922   1.2445E-12  
  5316.784668   1.2391E-12  
  5319.523926   1.2397E-12  
  5322.263672   1.2399E-12  
  5325.00293    1.2348E-12  
  5327.742188   1.2229E-12  
  5330.481445   1.2136E-12  
  5333.221191   1.2237E-12  
  5335.960449   1.2365E-12  
  5338.699707   1.2374E-12  
  5341.438965   1.2279E-12  
  5344.178223   1.2281E-12  
  5346.916992   1.2322E-12  
  5349.65625    1.2358E-12  
  5352.395508   1.2419E-12  
  5355.134277   1.2323E-12  
  5357.873535   1.2432E-12  
  5360.612305   1.2429E-12  
  5363.351562   1.2391E-12  
  5366.090332   1.2356E-12  
  5368.829102   1.2303E-12  
  5371.567871   1.2175E-12  
  5374.306641   1.217E-12   
  5377.045898   1.2329E-12  
  5379.78418    1.2334E-12  
  5382.522949   1.2322E-12  
  5385.261719   1.2267E-12  
  5388.000488   1.2259E-12  
  5390.739258   1.2312E-12  
  5393.477539   1.2292E-12  
  5396.216309   1.2198E-12  
  5398.95459    1.21E-12    
  5401.692871   1.2072E-12  
  5404.431641   1.213E-12   
  5407.169922   1.2066E-12  
  5409.908203   1.2111E-12  
  5412.646484   1.2124E-12  
  5415.384766   1.2141E-12  
  5418.123047   1.2199E-12  
  5420.861328   1.2215E-12  
  5423.599609   1.2208E-12  
  5426.337402   1.2128E-12  
  5429.075684   1.2128E-12  
  5431.813965   1.205E-12   
  5434.551758   1.2038E-12  
  5437.289551   1.2062E-12  
  5440.027832   1.2111E-12  
  5442.765625   1.2132E-12  
  5445.503418   1.2129E-12  
  5448.241211   1.2059E-12  
  5453.51416    1.2056E-12  
  5458.384766   1.1986E-12  
  5463.255371   1.2077E-12  
  5468.125977   1.2029E-12  
  5472.996582   1.2073E-12  
  5477.867676   1.2077E-12  
  5482.738281   1.2007E-12  
  5487.609375   1.2013E-12  
  5492.47998    1.2042E-12  
  5497.351074   1.1979E-12  
  5502.222168   1.2005E-12  
  5507.093262   1.1954E-12  
  5511.964355   1.1949E-12  
  5516.835449   1.1982E-12  
  5521.707031   1.2058E-12  
  5526.578125   1.1909E-12  
  5531.449219   1.1842E-12  
  5536.320801   1.1909E-12  
  5541.192383   1.1847E-12  
  5546.063965   1.1937E-12  
  5550.935547   1.1981E-12  
  5555.807129   1.189E-12   
  5560.678711   1.1871E-12  
  5565.550293   1.1852E-12  
  5570.422363   1.1828E-12  
  5575.293945   1.1767E-12  
  5580.166016   1.1783E-12  
  5585.038086   1.1845E-12  
  5589.909668   1.1741E-12  
  5594.781738   1.1664E-12  
  5599.653809   1.176E-12   
  5604.526367   1.1704E-12  
  5609.398438   1.1809E-12  
  5614.270508   1.17E-12    
  5619.143066   1.1618E-12  
  5624.015137   1.1709E-12  
  5628.887695   1.1759E-12  
  5633.760254   1.1667E-12  
  5638.632812   1.1634E-12  
  5643.505371   1.1638E-12  
  5648.37793    1.1666E-12  
  5653.250488   1.1649E-12  
  5658.123535   1.1642E-12  
  5662.996094   1.1619E-12  
  5667.868652   1.1607E-12  
  5672.741699   1.1583E-12  
  5677.614746   1.1476E-12  
  5682.487793   1.158E-12   
  5687.36084    1.1535E-12  
  5692.233887   1.1505E-12  
  5697.106934   1.1546E-12  
  5701.97998    1.1596E-12  
  5706.853516   1.1501E-12  
  5711.726562   1.1493E-12  
  5716.600098   1.1529E-12  
  5721.473145   1.1487E-12  
  5726.34668    1.1461E-12  
  5731.220215   1.1443E-12  
  5736.09375    1.1443E-12  
  5740.967285   1.1445E-12  
  5745.84082    1.1431E-12  
  5750.714844   1.1457E-12  
  5755.588379   1.1367E-12  
  5760.461914   1.1352E-12  
  5765.335938   1.1395E-12  
  5770.209961   1.1408E-12  
  5775.083496   1.1466E-12  
  5779.95752    1.149E-12   
  5784.831543   1.1379E-12  
  5789.705566   1.1334E-12  
  5794.580078   1.131E-12   
  5799.454102   1.1298E-12  
  5804.328125   1.1288E-12  
  5809.202637   1.1264E-12  
  5814.07666    1.1306E-12  
  5818.951172   1.1305E-12  
  5823.825684   1.1275E-12  
  5828.700195   1.1231E-12  
  5833.574707   1.1178E-12  
  5838.449219   1.1168E-12  
  5843.32373    1.1231E-12  
  5848.198242   1.1181E-12  
  5853.072754   1.1028E-12  
  5857.947754   1.0887E-12  
  5862.822266   1.105E-12   
  5867.697266   1.1103E-12  
  5872.572266   1.116E-12   
  5877.447266   1.1117E-12  
  5882.321777   1.1094E-12  
  5887.196777   1.1031E-12  
  5892.072266   1.0795E-12  
  5896.947266   1.0841E-12  
  5901.822266   1.0917E-12  
  5906.697266   1.0999E-12  
  5911.572754   1.1059E-12  
  5916.448242   1.0988E-12  
  5921.323242   1.1058E-12  
  5926.19873    1.0957E-12  
  5931.074219   1.0999E-12  
  5935.949707   1.0953E-12  
  5940.825195   1.0993E-12  
  5945.700684   1.0938E-12  
  5950.576172   1.0954E-12  
  5955.45166    1.0999E-12  
  5960.327637   1.0876E-12  
  5965.203125   1.0908E-12  
  5970.079102   1.0926E-12  
  5974.955078   1.0927E-12  
  5979.830566   1.0857E-12  
  5984.706543   1.0873E-12  
  5989.58252    1.0857E-12  
  5994.458496   1.0849E-12  
  5999.334473   1.0866E-12  
  6004.210449   1.0769E-12  
  6009.086914   1.0782E-12  
  6013.962891   1.0785E-12  
  6018.839355   1.0778E-12  
  6023.715332   1.0797E-12  
  6028.591797   1.0732E-12  
  6033.468262   1.0751E-12  
  6038.344238   1.0766E-12  
  6043.220703   1.0889E-12  
  6048.097168   1.0778E-12  
  6052.973633   1.0686E-12  
  6057.850098   1.0681E-12  
  6062.727051   1.0658E-12  
  6067.603516   1.0651E-12  
  6072.47998    1.0644E-12  
  6077.356934   1.0614E-12  
  6082.233887   1.0665E-12  
  6087.110352   1.0603E-12  
  6091.987305   1.0597E-12  
  6096.864258   1.0611E-12  
  6101.741211   1.0611E-12  
  6106.618164   1.0635E-12  
  6111.495117   1.0585E-12  
  6116.37207    1.0561E-12  
  6121.249023   1.051E-12   
  6126.126465   1.0442E-12  
  6131.003418   1.0532E-12  
  6135.880859   1.053E-12   
  6140.757812   1.0442E-12  
  6145.635254   1.0416E-12  
  6150.512695   1.0427E-12  
  6155.389648   1.0445E-12  
  6160.26709    1.0427E-12  
  6165.144531   1.0349E-12  
  6170.021973   1.0357E-12  
  6174.899902   1.0425E-12  
  6179.777344   1.0417E-12  
  6184.654785   1.0395E-12  
  6189.532715   1.0392E-12  
  6194.410156   1.0383E-12  
  6199.288086   1.0414E-12  
  6204.165527   1.0396E-12  
  6209.043457   1.0357E-12  
  6213.921387   1.0367E-12  
  6218.799316   1.0312E-12  
  6223.677246   1.0258E-12  
  6228.555176   1.0319E-12  
  6233.433105   1.0299E-12  
  6238.311035   1.026E-12   
  6243.188965   1.0225E-12  
  6248.067383   1.0245E-12  
  6252.945312   1.024E-12   
  6257.823242   1.0226E-12  
  6262.70166    1.0214E-12  
  6267.580078   1.0162E-12  
  6272.458008   1.0155E-12  
  6277.336426   1.0241E-12  
  6282.214844   1.0238E-12  
  6287.093262   1.0178E-12  
  6291.97168    1.0191E-12  
  6296.850098   1.0219E-12  
  6301.728516   1.0158E-12  
  6306.607422   1.0108E-12  
  6311.48584    1.011E-12   
  6316.364258   1.0062E-12  
  6321.243164   9.9959E-13  
  6326.121582   9.946E-13   
  6331.000488   9.9626E-13  
  6335.879395   9.9721E-13  
  6340.757812   1.0005E-12  
  6345.636719   9.9776E-13  
  6350.515625   9.9892E-13  
  6355.394531   1.0015E-12  
  6360.273438   1.0038E-12  
  6365.152344   9.9555E-13  
  6370.031738   9.9746E-13  
  6374.910645   9.9659E-13  
  6379.789551   9.9567E-13  
  6384.668945   9.9441E-13  
  6389.547852   9.9979E-13  
  6394.427246   9.8883E-13  
  6399.306152   9.9691E-13  
  6404.185547   9.9285E-13  
  6409.064941   9.8327E-13  
  6413.943848   9.8286E-13  
  6418.823242   9.8121E-13  
  6423.702637   9.7983E-13  
  6428.582031   9.8418E-13  
  6433.461426   9.7888E-13  
  6438.341309   9.7787E-13  
  6443.220703   9.7431E-13  
  6448.100098   9.7038E-13  
  6452.97998    9.7419E-13  
  6457.859375   9.7244E-13  
  6462.73877    9.7078E-13  
  6467.618652   9.6942E-13  
  6472.498535   9.7398E-13  
  6477.37793    9.6662E-13  
  6482.257812   9.7059E-13  
  6487.137695   9.7202E-13  
  6492.017578   9.6351E-13  
  6496.897461   9.6343E-13  
  6501.777344   9.605E-13   
  6506.657227   9.655E-13   
  6511.537109   9.6545E-13  
  6516.416992   9.6592E-13  
  6521.297363   9.6E-13     
  6526.177246   9.579E-13   
  6531.057129   9.6032E-13  
  6535.9375     9.5743E-13  
  6540.817871   9.5606E-13  
  6545.697754   9.4445E-13  
  6550.578125   9.2915E-13  
  6555.458496   8.9619E-13  
  6560.338379   8.6106E-13  
  6565.21875    8.0624E-13  
  6570.099121   8.1581E-13  
  6574.979492   8.8115E-13  
  6579.859863   9.1177E-13  
  6584.740234   9.3069E-13  
  6589.620605   9.4189E-13  
  6594.501465   9.4269E-13  
  6599.381836   9.4387E-13  
  6604.262207   9.457E-13   
  6609.143066   9.4943E-13  
  6614.023438   9.435E-13   
  6618.904297   9.4549E-13  
  6623.784668   9.4234E-13  
  6628.665527   9.4623E-13  
  6633.546387   9.41E-13    
  6638.426758   9.4044E-13  
  6643.307617   9.4366E-13  
  6648.188477   9.356E-13   
  6653.069336   9.393E-13   
  6657.950195   9.3495E-13  
  6662.831055   9.3351E-13  
  6667.711914   9.3209E-13  
  6672.592773   9.3517E-13  
  6677.474121   9.361E-13   
  6682.35498    9.262E-13   
  6687.23584    9.3112E-13  
  6692.117188   9.2603E-13  
  6696.998047   9.2667E-13  
  6701.878906   9.2806E-13  
  6706.760254   9.2806E-13  
  6711.641602   9.2447E-13  
  6716.522461   9.2059E-13  
  6721.403809   9.2277E-13  
  6726.285156   9.257E-13   
  6731.166504   9.2179E-13  
  6736.047852   9.1921E-13  
  6740.928711   9.2199E-13  
  6745.810059   9.2407E-13  
  6750.691895   9.1838E-13  
  6755.573242   9.1593E-13  
  6760.45459    9.131E-13   
  6765.335938   9.1453E-13  
  6770.217285   9.1342E-13  
  6775.099121   9.1437E-13  
  6779.980469   9.1179E-13  
  6784.861816   9.0837E-13  
  6789.743652   9.0924E-13  
  6794.625      9.0766E-13  
  6799.506836   9.0877E-13  
  6804.388184   9.0493E-13  
  6809.27002    9.0304E-13  
  6814.151855   9.0692E-13  
  6819.033691   9.0546E-13  
  6823.915039   9.0121E-13  
  6828.796875   9.0531E-13  
  6833.678711   9.0466E-13  
  6838.560547   9.0343E-13  
  6843.442383   8.9569E-13  
  6848.324219   8.9619E-13  
  6853.206055   8.9735E-13  
  6858.087891   8.8826E-13  
  6862.970215   8.8895E-13  
  6867.852051   8.867E-13   
  6872.733887   8.9128E-13  
  6877.616211   8.9111E-13  
  6882.498047   8.8762E-13  
  6887.379883   8.9197E-13  
  6892.262207   8.9444E-13  
  6897.144043   8.9114E-13  
  6902.026367   8.7969E-13  
  6906.908691   8.8272E-13  
  6911.790527   8.8239E-13  
  6916.672852   8.8788E-13  
  6921.555176   8.8173E-13  
  6926.4375     8.821E-13   
  6931.319336   8.8244E-13  
  6936.20166    8.7523E-13  
  6941.083984   8.7848E-13  
  6945.966309   8.7877E-13  
  6950.848633   8.7305E-13  
  6955.730957   8.7169E-13  
  6960.613281   8.7289E-13  
  6965.496094   8.7584E-13  
  6970.378418   8.7332E-13  
  6975.260742   8.7027E-13  
  6980.143066   8.7132E-13  
  6985.025879   8.711E-13   
  6989.908203   8.6849E-13  
  6994.790527   8.6688E-13  
  6999.67334    8.7086E-13  
  7004.555664   8.6297E-13  
  7009.438477   8.6453E-13  
  7014.320801   8.6191E-13  
  7019.203613   8.5749E-13  
  7024.086426   8.6236E-13  
  7028.96875    8.577E-13   
  7033.851562   8.5762E-13  
  7038.734375   8.546E-13   
  7043.617188   8.5363E-13  
  7048.5        8.5308E-13  
  7053.382324   8.5266E-13  
  7058.265137   8.5305E-13  
  7063.147949   8.5608E-13  
  7068.030762   8.5206E-13  
  7072.913574   8.5194E-13  
  7077.796387   8.481E-13   
  7082.679688   8.4713E-13  
  7087.5625     8.4736E-13  
  7092.445312   8.4754E-13  
  7097.328125   8.4754E-13  
  7102.210938   8.4766E-13  
  7107.094238   8.4594E-13  
  7111.977051   8.4543E-13  
  7116.859863   8.4261E-13  
  7121.743164   8.4356E-13  
  7126.625977   8.3788E-13  
  7131.509277   8.3891E-13  
  7136.39209    8.381E-13   
  7141.275391   8.402E-13   
  7146.158203   8.3689E-13  
  7151.041504   8.3411E-13  
  7155.924805   8.279E-13   
  7160.807617   8.2984E-13  
  7165.690918   8.3027E-13  
  7170.574219   8.3004E-13  
  7175.45752    8.3245E-13  
  7180.340332   8.2816E-13  
  7185.223633   8.2713E-13  
  7190.106934   8.2904E-13  
  7194.990234   8.2448E-13  
  7199.873535   8.2524E-13  
  7204.756836   8.2282E-13  
  7209.640137   8.2406E-13  
  7214.523438   8.2385E-13  
  7219.406738   8.2358E-13  
  7224.290039   8.2618E-13  
  7229.17334    8.2257E-13  
  7234.056641   8.1967E-13  
  7238.94043    8.1633E-13  
  7243.82373    8.1925E-13  
  7248.707031   8.1777E-13  
  7253.590332   8.1744E-13  
  7258.474121   8.1318E-13  
  7263.357422   8.1312E-13  
  7268.240723   8.1558E-13  
  7273.124512   8.1627E-13  
  7278.007812   8.1043E-13  
  7282.891602   8.1164E-13  
  7287.774902   8.0759E-13  
  7292.658691   8.1236E-13  
  7297.541992   8.0757E-13  
  7302.425781   8.0552E-13  
  7307.309082   8.037E-13   
  7312.192871   8.0315E-13  
  7317.076172   8.0436E-13  
  7321.959961   8.061E-13   
  7326.84375    8.0108E-13  
  7331.727051   8.0061E-13  
  7336.61084    7.9938E-13  
  7341.494629   7.9917E-13  
  7346.378418   7.9799E-13  
  7351.262207   8.0154E-13  
  7356.145508   7.9709E-13  
  7361.029297   7.9695E-13  
  7365.913086   7.912E-13   
  7370.796875   7.9276E-13  
  7375.680664   7.9051E-13  
  7380.564453   7.9416E-13  
  7385.448242   7.9158E-13  
  7390.332031   7.84E-13    
  7395.21582    7.8852E-13  
  7400.099609   7.8798E-13  
  7404.983398   7.8576E-13  
  7409.867188   7.8217E-13  
  7414.750977   7.8206E-13  
  7419.634766   7.8329E-13  
  7424.518555   7.8377E-13  
  7429.402832   7.7827E-13  
  7434.286621   7.7877E-13  
  7439.17041    7.7915E-13  
  7444.054199   7.8216E-13  
  7448.938477   7.8202E-13  
  7453.822266   7.8123E-13  
  7458.706055   7.7827E-13  
  7463.589844   7.7498E-13  
  7468.474121   7.7269E-13  
  7473.35791    7.734E-13   
  7478.241699   7.7425E-13  
  7483.125977   7.7266E-13  
  7488.009766   7.7211E-13  
  7492.894043   7.6959E-13  
  7497.777832   7.6941E-13  
  7502.662109   7.7061E-13  
  7507.545898   7.6922E-13  
  7512.429688   7.6811E-13  
  7517.313965   7.6433E-13  
  7522.197754   7.6166E-13  
  7527.082031   7.6079E-13  
  7531.966309   7.6205E-13  
  7536.850098   7.6213E-13  
  7541.734375   7.6701E-13  
  7546.618164   7.6587E-13  
  7551.502441   7.6E-13     
  7556.386719   7.5929E-13  
  7561.270508   7.5932E-13  
  7566.154785   7.6107E-13  
  7571.039062   7.5376E-13  
  7575.922852   7.5407E-13  
  7580.807129   7.5556E-13  
  7585.691406   7.5483E-13  
  7590.575195   7.5459E-13  
  7595.459473   7.5739E-13  
  7600.34375    7.5151E-13  
  7605.228027   7.5097E-13  
  7610.111816   7.4857E-13  
  7614.996094   7.5099E-13  
  7619.880371   7.4888E-13  
  7624.764648   7.4678E-13  
  7629.648926   7.4273E-13  
  7634.532715   7.4516E-13  
  7639.416992   7.4216E-13  
  7644.30127    7.4464E-13  
  7649.185547   7.4682E-13  
  7654.069824   7.4525E-13  
  7658.954102   7.3581E-13  
  7663.838379   7.3478E-13  
  7668.722168   7.374E-13   
  7673.606445   7.3718E-13  
  7678.490723   7.3499E-13  
  7683.375      7.3898E-13  
  7688.259277   7.3551E-13  
  7693.143555   7.3889E-13  
  7698.027832   7.331E-13   
  7702.912109   7.3229E-13  
  7707.796387   7.3334E-13  
  7712.680664   7.2969E-13  
  7717.564941   7.3066E-13  
  7722.449219   7.3278E-13  
  7727.333496   7.307E-13   
  7732.217773   7.3312E-13  
  7737.102051   7.3078E-13  
  7741.986328   7.268E-13   
  7746.870605   7.2221E-13  
  7751.754883   7.2315E-13  
  7756.63916    7.2495E-13  
  7761.523438   7.2558E-13  
  7766.407715   7.2413E-13  
  7771.291992   7.2203E-13  
  7776.17627    7.2063E-13  
  7781.060547   7.1535E-13  
  7785.944824   7.1862E-13  
  7790.829102   7.1912E-13  
  7795.713379   7.1671E-13  
  7800.597656   7.1412E-13  
  7805.481934   7.168E-13   
  7810.366211   7.179E-13   
  7815.250488   7.1844E-13  
  7820.135254   7.1636E-13  
  7825.019531   7.1328E-13  
  7829.903809   7.0989E-13  
  7834.788086   7.0403E-13  
  7839.672363   7.0994E-13  
  7844.556641   7.0642E-13  
  7849.440918   7.0506E-13  
  7854.325195   7.1002E-13  
  7859.209473   7.1276E-13  
  7864.09375    7.1091E-13  
  7868.978027   7.0589E-13  
  7873.862305   7.0879E-13  
  7878.746582   7.0246E-13  
  7883.631348   7.0142E-13  
  7888.515625   7.051E-13   
  7893.399902   7.0639E-13  
  7898.28418    7.0243E-13  
  7903.168457   7.0087E-13  
  7908.052734   6.9827E-13  
  7912.937012   6.9408E-13  
  7917.821289   6.9274E-13  
  7922.705566   6.9639E-13  
  7927.589844   6.9873E-13  
  7932.474121   6.9475E-13  
  7937.358398   6.9543E-13  
  7942.242676   6.8909E-13  
  7947.126953   6.9235E-13  
  7952.01123    6.9165E-13  
  7956.895508   6.8754E-13  
  7961.779785   6.8785E-13  
  7966.664062   6.8507E-13  
  7971.54834    6.8746E-13  
  7976.432617   6.9439E-13  
  7981.316895   6.9458E-13  
  7986.201172   6.9228E-13  
  7991.085449   6.9005E-13  
  7995.969727   6.8606E-13  
  8000.854004   6.7969E-13  
  8005.738281   6.8616E-13  
  8010.622559   6.8648E-13  
  8015.506836   6.8411E-13  
  8020.391113   6.8121E-13  
  8025.275391   6.8018E-13  
  8030.159668   6.7951E-13  
  8035.043945   6.7425E-13  
  8039.928223   6.7648E-13  
  8044.8125     6.7531E-13  
  8049.696777   6.7359E-13  
  8054.581055   6.7375E-13  
  8059.464844   6.757E-13   
  8064.349121   6.7587E-13  
  8069.233398   6.6895E-13  
  8074.117676   6.6818E-13  
  8079.001953   6.7023E-13  
  8083.88623    6.6607E-13  
  8088.77002    6.6871E-13  
  8093.654297   6.6637E-13  
  8098.538574   6.6486E-13  
  8103.422852   6.703E-13   
  8108.307129   6.6113E-13  
  8113.190918   6.6387E-13  
  8118.075195   6.6511E-13  
  8122.959473   6.6371E-13  
  8127.84375    6.6065E-13  
  8132.727539   6.6671E-13  
  8137.611816   6.5787E-13  
  8142.496094   6.5735E-13  
  8147.379883   6.6385E-13  
  8152.26416    6.6093E-13  
  8157.148438   6.6233E-13  
  8162.032227   6.6181E-13  
  8166.916504   6.5626E-13  
  8171.800293   6.5848E-13  
  8176.68457    6.5761E-13  
  8181.568848   6.5274E-13  
  8186.452637   6.4726E-13  
  8191.336914   6.5242E-13  
  8196.220703   6.4996E-13  
  8201.104492   6.4956E-13  
  8205.989258   6.4689E-13  
  8210.873047   6.5022E-13  
  8215.756836   6.4873E-13  
  8220.640625   6.4755E-13  
  8225.524414   6.4843E-13  
  8230.40918    6.4935E-13  
  8235.292969   6.4717E-13  
  8240.176758   6.4614E-13  
  8245.060547   6.4964E-13  
  8249.944336   6.4468E-13  
  8254.829102   6.458E-13   
  8259.712891   6.4268E-13  
  8264.59668    6.39E-13    
  8269.480469   6.4241E-13  
  8274.364258   6.4223E-13  
  8279.248047   6.4236E-13  
  8284.131836   6.4111E-13  
  8289.015625   6.3753E-13  
  8293.899414   6.3601E-13  
  8298.783203   6.3992E-13  
  8303.666992   6.3376E-13  
  8308.551758   6.3502E-13  
  8313.435547   6.3688E-13  
  8318.319336   6.3463E-13  
  8323.203125   6.3143E-13  
  8328.086914   6.329E-13   
  8332.970703   6.3054E-13  
  8337.854492   6.321E-13   
  8342.738281   6.2877E-13  
  8347.621094   6.267E-13   
  8352.504883   6.3037E-13  
  8357.388672   6.2751E-13  
  8362.272461   6.24E-13    
  8367.15625    6.2102E-13  
  8372.040039   6.1973E-13  
  8376.923828   6.2314E-13  
  8381.807617   6.2373E-13  
  8386.691406   6.2754E-13  
  8391.574219   6.2468E-13  
  8396.458008   6.2518E-13  
  8401.341797   6.2426E-13  
  8406.225586   6.2095E-13  
  8411.109375   6.2557E-13  
  8415.992188   6.225E-13   
  8420.875977   6.221E-13   
  8425.759766   6.2208E-13  
  8430.643555   6.1995E-13  
  8435.526367   6.1934E-13  
  8440.410156   6.1557E-13  
  8445.293945   6.1102E-13  
  8450.177734   6.1014E-13  
  8455.060547   6.0891E-13  
  8459.944336   6.1201E-13  
  8464.827148   6.133E-13   
  8469.710938   6.1522E-13  
  8474.594727   6.128E-13   
  8479.477539   6.1375E-13  
  8484.361328   6.1305E-13  
  8489.244141   6.1247E-13  
  8494.12793    6.0756E-13  
  8499.011719   5.9988E-13  
  8503.894531   5.8891E-13  
  8508.77832    5.9489E-13  
  8513.661133   5.9958E-13  
  8518.544922   6.0024E-13  
  8523.427734   6.0317E-13  
  8528.310547   6.0557E-13  
  8533.194336   5.9897E-13  
  8538.077148   5.9243E-13  
  8542.960938   5.7936E-13  
  8547.84375    5.6182E-13  
  8552.726562   5.794E-13   
  8557.610352   5.9467E-13  
  8562.493164   5.9645E-13  
  8567.375977   6.0363E-13  
  8572.259766   6.0017E-13  
  8577.142578   6.0323E-13  
  8582.025391   5.9882E-13  
  8586.908203   5.9585E-13  
  8591.791992   5.9507E-13  
  8596.674805   5.9714E-13  
  8601.557617   5.9373E-13  
  8606.44043    5.9379E-13  
  8611.323242   5.9351E-13  
  8616.206055   5.9544E-13  
  8621.089844   5.9537E-13  
  8625.972656   5.9205E-13  
  8630.855469   5.9168E-13  
  8635.738281   5.8933E-13  
  8640.621094   5.8814E-13  
  8645.503906   5.8528E-13  
  8650.386719   5.8951E-13  
  8655.269531   5.8378E-13  
  8660.152344   5.7819E-13  
  8665.035156   5.6186E-13  
  8669.917969   5.5916E-13  
  8674.799805   5.7124E-13  
  8679.682617   5.7827E-13  
  8684.56543    5.8046E-13  
  8689.448242   5.8024E-13  
  8694.331055   5.8098E-13  
  8699.213867   5.792E-13   
  8704.095703   5.8503E-13  
  8708.978516   5.8387E-13  
  8713.861328   5.815E-13   
  8718.744141   5.8106E-13  
  8723.625977   5.8215E-13  
  8728.508789   5.7982E-13  
  8733.391602   5.7987E-13  
  8738.273438   5.7525E-13  
  8743.15625    5.7177E-13  
  8748.039062   5.724E-13   
  8752.920898   5.6918E-13  
  8757.803711   5.687E-13   
  8762.685547   5.7247E-13  
  8767.568359   5.742E-13   
  8772.450195   5.7229E-13  
  8777.333008   5.7316E-13  
  8782.214844   5.6889E-13  
  8787.097656   5.7126E-13  
  8791.979492   5.6998E-13  
  8796.861328   5.7221E-13  
  8801.744141   5.7316E-13  
  8806.625977   5.7032E-13  
  8811.507812   5.7129E-13  
  8816.390625   5.6871E-13  
  8821.272461   5.6886E-13  
  8826.154297   5.6488E-13  
  8831.036133   5.6356E-13  
  8835.918945   5.6555E-13  
  8840.800781   5.6485E-13  
  8845.682617   5.6362E-13  
  8850.564453   5.6125E-13  
  8855.446289   5.6089E-13  
  8860.328125   5.5471E-13  
  8865.209961   5.4831E-13  
  8870.091797   5.4787E-13  
  8874.973633   5.5521E-13  
  8879.855469   5.5889E-13  
  8884.737305   5.5556E-13  
  8889.619141   5.592E-13   
  8894.500977   5.5754E-13  
  8899.382812   5.5692E-13  
  8904.264648   5.5858E-13  
  8909.146484   5.5847E-13  
  8914.027344   5.59E-13    
  8918.90918    5.5845E-13  
  8923.791016   5.5688E-13  
  8928.672852   5.5733E-13  
  8933.553711   5.5197E-13  
  8938.435547   5.5619E-13  
  8943.317383   5.4788E-13  
  8948.198242   5.5323E-13  
  8953.080078   5.5373E-13  
  8957.961914   5.565E-13   
  8962.842773   5.5502E-13  
  8967.724609   5.5415E-13  
  8972.605469   5.4944E-13  
  8977.487305   5.4974E-13  
  8982.368164   5.534E-13   
  8987.249023   5.505E-13   
  8992.130859   5.5527E-13  
  8997.011719   5.4669E-13  
  9001.892578   5.4182E-13  
  9006.774414   5.3956E-13  
  9011.655273   5.3367E-13  
  9016.536133   5.2978E-13  
  9021.417969   5.3023E-13  
  9026.298828   5.3524E-13  
  9031.179688   5.3863E-13  
  9036.060547   5.4022E-13  
  9040.941406   5.3931E-13  
  9045.822266   5.374E-13   
  9050.703125   5.4238E-13  
  9055.583984   5.3827E-13  
  9060.464844   5.384E-13   
  9065.345703   5.3934E-13  
  9070.226562   5.3812E-13  
  9075.107422   5.4096E-13  
  9079.988281   5.4123E-13  
  9084.869141   5.3696E-13  
  9089.75       5.2996E-13  
  9094.629883   5.2902E-13  
  9099.510742   5.3187E-13  
  9104.391602   5.3404E-13  
  9109.272461   5.3679E-13  
  9114.152344   5.3536E-13  
  9119.033203   5.3315E-13  
  9123.914062   5.3291E-13  
  9128.793945   5.3243E-13  
  9133.674805   5.3022E-13  
  9138.554688   5.3125E-13  
  9143.435547   5.3383E-13  
  9148.31543    5.3046E-13  
  9153.196289   5.3295E-13  
  9158.076172   5.3179E-13  
  9162.956055   5.3298E-13  
  9167.836914   5.2441E-13  
  9172.716797   5.2079E-13  
  9177.59668    5.213E-13   
  9182.476562   5.2457E-13  
  9187.357422   5.283E-13   
  9192.237305   5.2608E-13  
  9197.117188   5.286E-13   
  9201.99707    5.2584E-13  
  9206.876953   5.1776E-13  
  9211.756836   5.1721E-13  
  9216.636719   5.0962E-13  
  9221.516602   5.0892E-13  
  9226.396484   5.1285E-13  
  9231.276367   5.0037E-13  
  9236.15625    5.0384E-13  
  9241.036133   5.0505E-13  
  9245.916016   5.0423E-13  
  9250.794922   5.1257E-13  
  9255.674805   5.1267E-13  
  9260.554688   5.1619E-13  
  9265.43457    5.1273E-13  
  9270.313477   5.1482E-13  
  9275.193359   5.1605E-13  
  9280.072266   5.1381E-13  
  9284.952148   5.1293E-13  
  9289.831055   5.1693E-13  
  9294.710938   5.1463E-13  
  9299.589844   5.107E-13   
  9304.469727   5.0943E-13  
  9309.348633   5.0861E-13  
  9314.227539   5.0615E-13  
  9319.107422   5.0462E-13  
  9323.986328   5.0923E-13  
  9328.865234   5.0808E-13  
  9333.744141   5.0767E-13  
  9338.624023   5.0831E-13  
  9343.50293    5.0406E-13  
  9348.381836   5.0584E-13  
  9353.260742   5.0122E-13  
  9358.139648   5.0724E-13  
  9363.018555   5.0473E-13  
  9367.897461   5.0187E-13  
  9372.776367   5.0148E-13  
  9377.655273   4.9815E-13  
  9382.53418    4.948E-13   
  9387.412109   4.9631E-13  
  9392.291016   4.9726E-13  
  9397.169922   4.9926E-13  
  9402.048828   5.0105E-13  
  9406.926758   5.0109E-13  
  9411.805664   4.9929E-13  
  9416.683594   4.9283E-13  
  9421.5625     4.8915E-13  
  9426.44043    4.9275E-13  
  9431.319336   4.9335E-13  
  9436.197266   4.9387E-13  
  9441.076172   4.9665E-13  
  9445.954102   4.954E-13   
  9450.832031   4.9568E-13  
  9455.710938   4.933E-13   
  9460.588867   4.9216E-13  
  9465.466797   4.9394E-13  
  9470.344727   4.9573E-13  
  9475.222656   4.9471E-13  
  9480.101562   4.9479E-13  
  9484.979492   4.8874E-13  
  9489.857422   4.8789E-13  
  9494.735352   4.8757E-13  
  9499.612305   4.8862E-13  
  9504.490234   4.8822E-13  
  9509.368164   4.8913E-13  
  9514.246094   4.881E-13   
  9519.124023   4.8775E-13  
  9524.001953   4.8802E-13  
  9528.878906   4.8439E-13  
  9533.756836   4.8266E-13  
  9538.634766   4.7585E-13  
  9543.511719   4.7036E-13  
  9548.389648   4.6396E-13  
  9553.266602   4.5906E-13  
  9558.144531   4.6277E-13  
  9563.021484   4.7554E-13  
  9567.898438   4.7789E-13  
  9572.776367   4.7293E-13  
  9577.65332    4.7394E-13  
  9582.530273   4.6957E-13  
  9587.407227   4.7551E-13  
  9592.285156   4.7646E-13  
  9597.162109   4.7691E-13  
  9602.039062   4.7567E-13  
  9606.916016   4.7762E-13  
  9611.792969   4.7736E-13  
  9616.669922   4.7721E-13  
  9621.546875   4.8013E-13  
  9626.423828   4.7737E-13  
  9631.299805   4.7321E-13  
  9636.176758   4.7238E-13  
  9641.053711   4.7019E-13  
  9645.930664   4.656E-13   
  9650.806641   4.6999E-13  
  9655.683594   4.6607E-13  
  9660.560547   4.6796E-13  
  9665.436523   4.6836E-13  
  9670.313477   4.6767E-13  
  9675.189453   4.6577E-13  
  9680.06543    4.689E-13   
  9684.942383   4.6941E-13  
  9689.818359   4.7092E-13  
  9694.694336   4.7618E-13  
  9699.571289   4.7124E-13  
  9704.447266   4.6903E-13  
  9709.323242   4.6182E-13  
  9714.199219   4.5946E-13  
  9719.075195   4.6139E-13  
  9723.951172   4.5905E-13  
  9728.827148   4.606E-13   
  9733.703125   4.6441E-13  
  9738.579102   4.6376E-13  
  9743.455078   4.6355E-13  
  9748.330078   4.6006E-13  
  9753.206055   4.6193E-13  
  9758.082031   4.6122E-13  
  9762.958008   4.5462E-13  
  9767.833008   4.6035E-13  
  9772.708984   4.5927E-13  
  9777.583984   4.6189E-13  
  9782.459961   4.6231E-13  
  9787.334961   4.5867E-13  
  9792.209961   4.557E-13   
  9797.085938   4.5691E-13  
  9801.960938   4.5777E-13  
  9806.835938   4.5735E-13  
  9811.710938   4.515E-13   
  9816.586914   4.5258E-13  
  9821.461914   4.5122E-13  
  9826.336914   4.4802E-13  
  9831.211914   4.5075E-13  
  9836.086914   4.5372E-13  
  9840.961914   4.5127E-13  
  9845.835938   4.4666E-13  
  9850.710938   4.506E-13   
  9855.585938   4.5322E-13  
  9860.460938   4.5303E-13  
  9865.334961   4.5305E-13  
  9870.209961   4.5009E-13  
  9875.084961   4.5264E-13  
  9879.958984   4.548E-13   
  9884.833984   4.483E-13   
  9889.708008   4.5078E-13  
  9894.582031   4.4736E-13  
  9899.457031   4.4892E-13  
  9904.331055   4.3931E-13  
  9909.205078   4.4406E-13  
  9914.079102   4.4404E-13  
  9918.954102   4.3735E-13  
  9923.828125   4.4695E-13  
  9928.702148   4.5358E-13  
  9933.576172   4.454E-13   
  9938.450195   4.3974E-13  
  9943.323242   4.4303E-13  
  9948.197266   4.4404E-13  
  9953.071289   4.4328E-13  
  9957.945312   4.4431E-13  
  9962.819336   4.4255E-13  
  9967.692383   4.4238E-13  
  9972.566406   4.4492E-13  
  9977.439453   4.3932E-13  
  9982.313477   4.3996E-13  
  9987.186523   4.3936E-13  
  9992.060547   4.3732E-13  
  9996.933594   4.3683E-13  
  10001.806641  4.3855E-13  
  10006.679688  4.4172E-13  
  10011.553711  4.4041E-13  
  10016.426758  4.3615E-13  
  10021.299805  4.3302E-13  
  10026.172852  4.3397E-13  
  10031.045898  4.3321E-13  
  10035.918945  4.2883E-13  
  10040.791992  4.2644E-13  
  10045.664062  4.2001E-13  
  10050.537109  4.1252E-13  
  10055.410156  4.0768E-13  
  10060.283203  4.1036E-13  
  10065.155273  4.2013E-13  
  10077.7646484 4.3029583E-13
  10087.8476562 4.3145953E-13
  10097.9404296 4.310819E-13
  10108.0439453 4.303574E-13
  10118.1572265 4.2948544E-13
  10128.2802734 4.2851784E-13
  10138.4130859 4.2761023E-13
  10148.5576171 4.2668476E-13
  10158.7109375 4.258063E-13
  10168.875     4.2499267E-13
  10179.0478515 4.241207E-13
  10189.2333984 4.23145E-13 
  10199.4267578 4.2217578E-13
  10209.6308593 4.2126006E-13
  10219.8466796 4.2025517E-13
  10230.0703125 4.1941724E-13
  10240.3056640 4.186182E-13
  10250.5517578 4.177673E-13
  10260.8076171 4.1684833E-13
  10271.0732421 4.159407E-13
  10281.3496093 4.150282E-13
  10291.6357421 4.140752E-13
  10301.9326171 4.1318053E-13
  10312.2392578 4.1226156E-13
  10322.5566406 4.110087E-13
  10332.8857421 4.095792E-13
  10343.2226562 4.0896328E-13
  10353.5712890 4.0846086E-13
  10363.9296875 4.076537E-13
  10374.2988281 4.0655774E-13
  10384.6787109 4.0574542E-13
  10395.0693359 4.0510715E-13
  10405.46875   4.0428023E-13
  10415.8789062 4.034193E-13
  10426.2998046 4.0254944E-13
  10436.7314453 4.0166465E-13
  10447.1738281 4.0066268E-13
  10457.6259765 3.9936026E-13
  10468.0888671 3.9840042E-13
  10478.5615234 3.9792358E-13
  10489.0458984 3.9726363E-13
  10499.5390625 3.96426E-13 
  10510.0449218 3.9555777E-13
  10520.5605468 3.946934E-13
  10531.0859375 3.9379307E-13
  10541.6230468 3.929146E-13
  10552.1689453 3.9209695E-13
  10562.7275390 3.9124845E-13
  10573.2949218 3.9024342E-13
  10583.8730468 3.886823E-13
  10594.4628906 3.8734597E-13
  10605.0615234 3.8670334E-13
  10615.671875  3.8623737E-13
  10626.2939453 3.8591566E-13
  10636.9248046 3.8520413E-13
  10647.5673828 3.843273E-13
  10658.2207031 3.8305952E-13
  10668.8828125 3.817762E-13
  10679.5585937 3.8061655E-13
  10690.2421875 3.784358E-13
  10700.9384765 3.7774585E-13
  10711.6455078 3.7828703E-13
  10722.3613281 3.7790225E-13
  10733.0888671 3.7684927E-13
  10743.828125  3.7597082E-13
  10754.5771484 3.749805E-13
  10765.3369140 3.7458648E-13
  10776.1083984 3.7409946E-13
  10786.8886718 3.7283363E-13
  10797.6806640 3.7190525E-13
  10808.484375  3.7145387E-13
  10819.2978515 3.703072E-13
  10830.1230468 3.68642E-13 
  10840.9580078 3.6807555E-13
  10851.8056640 3.6799434E-13
  10862.6621093 3.6693226E-13
  10873.5302734 3.6507792E-13
  10884.4091796 3.645123E-13
  10895.2988281 3.6434958E-13
  10906.2001953 3.6333675E-13
  10917.1123046 3.6091193E-13
  10928.0351562 3.547621E-13
  10938.9667968 3.4268885E-13
  10949.9121093 3.4140502E-13
  10960.8681640 3.5203662E-13
  10971.8339843 3.5679275E-13
  10982.8105468 3.571242E-13
  10993.7988281 3.5699777E-13
  11004.7988281 3.5683246E-13
  11015.8095703 3.5591655E-13
  11026.8291015 3.5498026E-13
  11037.8623046 3.546167E-13
  11048.90625   3.5406048E-13
  11059.9599609 3.5331005E-13
  11071.0244140 3.5254018E-13
  11082.1015625 3.517671E-13
  11093.1894531 3.5099397E-13
  11104.2880859 3.5021115E-13
  11115.3984375 3.4938E-13  
  11126.5185546 3.485061E-13
  11137.6513671 3.4772974E-13
  11148.7939453 3.4703542E-13
  11159.9492187 3.462991E-13
  11171.1152343 3.4554008E-13
  11182.2910156 3.4466811E-13
  11193.4794921 3.4371106E-13
  11204.6787109 3.430282E-13
  11215.8876953 3.4242772E-13
  11227.1103515 3.4172562E-13
  11238.3427734 3.409431E-13
  11249.5859375 3.4000743E-13
  11260.8417968 3.3908407E-13
  11272.1074218 3.3850012E-13
  11283.3867187 3.3778278E-13
  11294.6757812 3.3685926E-13
  11305.9755859 3.3614938E-13
  11317.2861328 3.3548972E-13
  11328.609375  3.346819E-13
  11339.9443359 3.3390768E-13
  11351.2900390 3.3332178E-13
  11362.6455078 3.3265564E-13
  11374.0146484 3.3184978E-13
  11385.3945312 3.3095691E-13
  11396.7861328 3.30124E-13 
  11408.1875    3.292601E-13
  11419.6015625 3.2861214E-13
  11431.0263671 3.2798444E-13
  11442.4638671 3.2721682E-13
  11453.9121093 3.2658067E-13
  11465.3720703 3.2600352E-13
  11476.8427734 3.2527548E-13
  11488.3251953 3.2446184E-13
  11499.8193359 3.2371596E-13
  11511.3251953 3.230469E-13
  11522.8427734 3.2236586E-13
  11534.3701171 3.2166845E-13
  11545.9091796 3.209597E-13
  11557.4619140 3.2024055E-13
  11569.0253906 3.1950506E-13
  11580.6005859 3.1872676E-13
  11592.1865234 3.1779725E-13
  11603.7841796 3.1674747E-13
  11615.3935546 3.1586983E-13
  11627.0146484 3.154507E-13
  11638.6484375 3.1481211E-13
  11650.2929687 3.1409735E-13
  11661.9482421 3.1351064E-13
  11673.6162109 3.12845E-13 
  11685.2958984 3.120889E-13
  11696.9873046 3.1123558E-13
  11708.6904296 3.10744E-13 
  11720.4042968 3.1025535E-13
  11732.1308593 3.0957187E-13
  11743.8691406 3.0862614E-13
  11755.6181640 3.0737086E-13
  11767.3798828 3.067668E-13
  11779.1533203 3.0639873E-13
  11790.9384765 3.0572658E-13
  11802.7353515 3.0525007E-13
  11814.5429687 3.0455995E-13
  11826.3632812 3.0310924E-13
  11838.1962890 3.0178082E-13
  11850.0410156 3.018058E-13
  11861.8964843 3.0178618E-13
  11873.7646484 3.010048E-13
  11885.6435546 2.9959783E-13
  11897.5341796 2.989396E-13
  11909.4384765 2.989727E-13
  11921.3544921 2.985821E-13
  11933.2822265 2.9792683E-13
  11945.2207031 2.9714106E-13
  11957.171875  2.962681E-13
  11969.1347656 2.951903E-13
  11981.1103515 2.9344197E-13
  11993.0976562 2.9224813E-13
  12005.0957031 2.92653E-13 
  12017.1074218 2.9287876E-13
  12029.1298828 2.9167844E-13
  12041.1650390 2.9054957E-13
  12053.2128906 2.907418E-13
  12065.2724609 2.905345E-13
  12077.34375   2.8966074E-13
  12089.4267578 2.885262E-13
  12101.5224609 2.8779605E-13
  12113.6298828 2.872727E-13
  12125.7490234 2.8707464E-13
  12137.8808593 2.866552E-13
  12150.0253906 2.8604498E-13
  12162.1816406 2.8540964E-13
  12174.3496093 2.8474917E-13
  12186.5302734 2.840879E-13
  12198.7226562 2.8344446E-13
  12210.9277343 2.8282045E-13
  12223.1435546 2.8217782E-13
  12235.3740234 2.815363E-13
  12247.6152343 2.8090066E-13
  12259.8681640 2.8015722E-13
  12272.1347656 2.7917E-13  
  12284.4130859 2.785465E-13
  12296.7041015 2.7826369E-13
  12309.0058593 2.777361E-13
  12321.3212890 2.771108E-13
  12333.6494140 2.7648164E-13
  12345.9882812 2.758544E-13
  12358.3408203 2.752369E-13
  12370.7050781 2.7462505E-13
  12383.0820312 2.739892E-13
  12395.4716796 2.7332357E-13
  12407.8740234 2.7269877E-13
  12420.2871093 2.720929E-13
  12432.7128906 2.7143945E-13
  12445.1523437 2.7084137E-13
  12457.6035156 2.7027816E-13
  12470.0683593 2.6967442E-13
  12482.5439453 2.6906613E-13
  12495.0322265 2.6846483E-13
  12507.5351562 2.678538E-13
  12520.0488281 2.6722545E-13
  12532.5742187 2.6660662E-13
  12545.1123046 2.6600662E-13
  12557.6650390 2.6538036E-13
  12570.2285156 2.6475634E-13
  12582.8046875 2.6415586E-13
  12595.3935546 2.6356136E-13
  12607.9951171 2.6294724E-13
  12620.6103515 2.6231968E-13
  12633.2363281 2.6174367E-13
  12645.8759765 2.6115354E-13
  12658.5283203 2.605801E-13
  12671.1933593 2.6000556E-13
  12683.8710937 2.593856E-13
  12696.5605468 2.587916E-13
  12709.2636718 2.5820326E-13
  12721.9794921 2.5758738E-13
  12734.7080078 2.5694182E-13
  12747.4482421 2.5626273E-13
  12760.203125  2.5551764E-13
  12772.96875   2.5461393E-13
  12785.7480468 2.5327873E-13
  12798.5410156 2.5031385E-13
  12811.3447265 2.4211392E-13
  12824.1640625 2.3292886E-13
  12836.9931640 2.3809717E-13
  12849.8369140 2.466772E-13
  12862.6933593 2.494424E-13
  12875.5615234 2.4986022E-13
  12888.4443359 2.4967268E-13
  12901.3398437 2.4924724E-13
  12914.2460937 2.4879908E-13
  12927.1679687 2.4836958E-13
  12940.1015625 2.4786957E-13
  12953.0478515 2.4734606E-13
  12966.0078125 2.4681155E-13
  12978.9804687 2.462561E-13
  12991.9658203 2.4571428E-13
  13004.9638671 2.4517375E-13
  13017.9755859 2.446065E-13
  13031.0       2.440081E-13
  13044.0380859 2.4345055E-13
  13057.0869140 2.429525E-13
  13070.1503906 2.4243305E-13
  13083.2275390 2.4188328E-13
  13096.3173828 2.4129445E-13
  13109.4208984 2.4063043E-13
  13122.5361328 2.398288E-13
  13135.6660156 2.3918698E-13
  13148.8066406 2.3878504E-13
  13161.9638671 2.382722E-13
  13175.1318359 2.3786135E-13
  13188.3144531 2.3739002E-13
  13201.5078125 2.3696377E-13
  13214.7167968 2.3647235E-13
  13227.9375    2.3594755E-13
  13241.171875  2.354156E-13
  13254.4199218 2.3486844E-13
  13267.6816406 2.3430376E-13
  13280.9560546 2.3372547E-13
  13294.2431640 2.3310927E-13
  13307.5439453 2.3259904E-13
  13320.8583984 2.320634E-13
  13334.1855468 2.3154067E-13
  13347.5253906 2.3111718E-13
  13360.8798828 2.3064357E-13
  13374.2470703 2.3012739E-13
  13387.6289062 2.2957713E-13
  13401.0224609 2.2903416E-13
  13414.4306640 2.285541E-13
  13427.8525390 2.280557E-13
  13441.2861328 2.2753788E-13
  13454.7353515 2.2703009E-13
  13468.1962890 2.2652035E-13
  13481.6708984 2.2600448E-13
  13495.1591796 2.2545031E-13
  13508.6611328 2.2489293E-13
  13522.1767578 2.2443134E-13
  13535.7050781 2.2395955E-13
  13549.2490234 2.2341302E-13
  13562.8046875 2.2283003E-13
  13576.3730468 2.2232257E-13
  13589.9570312 2.2188577E-13
  13603.5537109 2.2141737E-13
  13617.1640625 2.2092448E-13
  13630.7880859 2.2037279E-13
  13644.4248046 2.1986207E-13
  13658.0761718 2.1940762E-13
  13671.7421875 2.1890112E-13
  13685.4199218 2.1835898E-13
  13699.1113281 2.177776E-13
  13712.8193359 2.1727355E-13
  13726.5371093 2.1685815E-13
  13740.2714843 2.164421E-13
  13754.0185546 2.159541E-13
  13767.7792968 2.15457E-13 
  13781.5537109 2.1499022E-13
  13795.3427734 2.1451143E-13
  13809.1445312 2.1402425E-13
  13822.9599609 2.1352958E-13
  13836.7900390 2.1302795E-13
  13850.6347656 2.1256231E-13
  13864.4912109 2.120939E-13
  13878.3632812 2.1161286E-13
  13892.2480468 2.1112372E-13
  13906.1474609 2.1061366E-13
  13920.0595703 2.1016065E-13
  13933.9873046 2.0971412E-13
  13947.9287109 2.0923877E-13
  13961.8837890 2.0876324E-13
  13975.8515625 2.0829596E-13
  13989.8349609 2.0778656E-13
  14003.8320312 2.0723257E-13
  14017.8427734 2.0676547E-13
  14031.8681640 2.0635136E-13
  14045.90625   2.0590322E-13
  14059.9589843 2.0544941E-13
  14074.0263671 2.0498425E-13
  14088.1074218 2.0451373E-13
  14102.203125  2.0403885E-13
  14116.3105468 2.0350075E-13
  14130.4345703 2.030053E-13
  14144.5722656 2.0261662E-13
  14158.7236328 2.0220868E-13
  14172.890625  2.0176135E-13
  14187.0703125 2.0130623E-13
  14201.2636718 2.0082455E-13
  14215.4726562 2.0030817E-13
  14229.6943359 1.9976084E-13
  14243.9316406 1.9925549E-13
  14258.1826171 1.9889453E-13
  14272.4492187 1.9850717E-13
  14286.7285156 1.9796988E-13
  14301.0205078 1.9746421E-13
  14315.328125  1.9711736E-13
  14329.6523437 1.9672725E-13
  14343.9882812 1.9628803E-13
  14358.3398437 1.9586046E-13
  14372.7050781 1.9541313E-13
  14387.0849609 1.9487924E-13
  14401.4794921 1.9412137E-13
  14415.8886718 1.9354666E-13
  14430.3115234 1.9326707E-13
  14444.7480468 1.929601E-13
  14459.2011718 1.9262477E-13
  14473.6660156 1.922421E-13
  14488.1474609 1.9179931E-13
  14502.6435546 1.9127531E-13
  14517.1523437 1.906873E-13
  14531.6777343 1.90215E-13 
  14546.2158203 1.895941E-13
  14560.7695312 1.8912359E-13
  14575.3388671 1.8897138E-13
  14589.9208984 1.8873233E-13
  14604.5185546 1.883406E-13
  14619.1298828 1.87896E-13 
  14633.7568359 1.8743976E-13
  14648.3974609 1.8699212E-13
  14663.0537109 1.8656261E-13
  14677.7226562 1.8616552E-13
  14692.4072265 1.8573148E-13
  14707.1074218 1.8524929E-13
  14721.8232421 1.8478819E-13
  14736.5517578 1.8437133E-13
  14751.2958984 1.8396516E-13
  14766.0537109 1.8356856E-13
  14780.8271484 1.8316823E-13
  14795.6152343 1.8277002E-13
  14810.4179687 1.8235218E-13
  14825.2363281 1.8187323E-13
  14840.0693359 1.814332E-13
  14854.9160156 1.8105394E-13
  14869.7783203 1.8042542E-13
  14884.65625   1.7964955E-13
  14899.5488281 1.7947548E-13
  14914.4560546 1.7936057E-13
  14929.3779296 1.7900724E-13
  14944.3144531 1.7857531E-13
  14959.265625  1.7810495E-13
  14974.2324218 1.7767692E-13
  14989.2138671 1.772774E-13
  15004.2099609 1.7680867E-13
  15019.2216796 1.7591935E-13
  15034.2490234 1.7456715E-13
  15049.2910156 1.7388804E-13
  15064.3476562 1.7425921E-13
  15079.4189453 1.7458531E-13
  15094.5068359 1.7433166E-13
  15109.6083984 1.7397557E-13
  15124.7255859 1.735383E-13
  15139.8583984 1.7305092E-13
  15155.0058593 1.7268138E-13
  15170.1679687 1.7232434E-13
  15185.3447265 1.7183973E-13
  15200.5380859 1.7131427E-13
  15215.7460937 1.7094506E-13
  15230.9697265 1.706598E-13
  15246.2089843 1.7020161E-13
  15261.4619140 1.6958929E-13
  15276.7314453 1.6916643E-13
  15292.015625  1.6886156E-13
  15307.3164062 1.684896E-13
  15322.6298828 1.6811034E-13
  15337.9609375 1.674066E-13
  15353.3066406 1.668147E-13
  15368.6669921 1.667356E-13
  15384.0429687 1.6660303E-13
  15399.4355468 1.6621291E-13
  15414.8417968 1.656607E-13
  15430.2646484 1.6481354E-13
  15445.703125  1.6392616E-13
  15461.15625   1.6382032E-13
  15476.6259765 1.6399002E-13
  15492.109375  1.6385226E-13
  15507.609375  1.6351254E-13
  15523.125     1.6298903E-13
  15538.6552734 1.6206196E-13
  15554.2021484 1.6062694E-13
  15569.7636718 1.5985026E-13
  15585.3417968 1.6034849E-13
  15600.9345703 1.6068139E-13
  15616.5429687 1.6057393E-13
  15632.1679687 1.6026274E-13
  15647.8076171 1.5989968E-13
  15663.4628906 1.5932481E-13
  15679.1347656 1.5822772E-13
  15694.8212890 1.562815E-13
  15710.5234375 1.5481746E-13
  15726.2421875 1.5558343E-13
  15741.9755859 1.5639835E-13
  15757.7255859 1.5620677E-13
  15773.4921875 1.5590273E-13
  15789.2734375 1.5603999E-13
  15805.0703125 1.5603335E-13
  15820.8828125 1.5551308E-13
  15836.7119140 1.5476429E-13
  15852.5566406 1.5373348E-13
  15868.4169921 1.5144707E-13
  15884.2929687 1.4810198E-13
  15900.1855468 1.478749E-13
  15916.09375   1.5048028E-13
  15932.0175781 1.5195501E-13
  15947.9580078 1.5221029E-13
  15963.9140625 1.5193524E-13
  15979.8847656 1.5165113E-13
  15995.8730468 1.5139309E-13
  16011.8769531 1.509832E-13
  16027.8974609 1.5053749E-13
  16043.9335937 1.5000329E-13
  16059.9853515 1.4925044E-13
  16076.0517578 1.48042E-13 
  16092.1376953 1.4544958E-13
  16108.2373046 1.4103122E-13
  16124.3535156 1.3962648E-13
  16140.4853515 1.4296203E-13
  16156.6347656 1.454345E-13
  16172.7988281 1.4611816E-13
  16188.9794921 1.4618947E-13
  16205.1767578 1.4597877E-13
  16221.390625  1.4565801E-13
  16237.6191406 1.4533905E-13
  16253.8652343 1.4499383E-13
  16270.1269531 1.4463321E-13
  16286.4052734 1.442058E-13
  16302.6992187 1.4368781E-13
  16319.0107421 1.4307597E-13
  16335.3378906 1.4242393E-13
  16351.6806640 1.4165909E-13
  16368.0419921 1.40385E-13 
  16384.4179687 1.3781642E-13
  16400.8105468 1.3296643E-13
  16417.2207031 1.2934306E-13
  16433.6445312 1.322238E-13
  16450.0859375 1.3605383E-13
  16466.5449218 1.375524E-13
  16483.0195312 1.3785143E-13
  16499.5097656 1.3770587E-13
  16516.0195312 1.3743813E-13
  16532.5410156 1.3707346E-13
  16549.0839843 1.3669063E-13
  16565.640625  1.3627329E-13
  16582.2148437 1.3584541E-13
  16598.8046875 1.354018E-13
  16615.4121093 1.3494101E-13
  16632.0351562 1.3445998E-13
  16648.6757812 1.3395592E-13
  16665.3339843 1.334264E-13
  16682.0078125 1.3285946E-13
  16698.6972656 1.3233402E-13
  16715.40625   1.3178846E-13
  16732.1269531 1.3110013E-13
  16748.8671875 1.3024063E-13
  16765.625     1.2899977E-13
  16782.4003906 1.2671643E-13
  16799.1894531 1.2184343E-13
  16815.9980468 1.176719E-13
  16832.8222656 1.2051765E-13
  16849.6640625 1.2473066E-13
  16866.5214843 1.2633215E-13
  16883.3964843 1.2663491E-13
  16900.2871093 1.265067E-13
  16917.1972656 1.2633717E-13
  16934.1230468 1.2606797E-13
  16951.0664062 1.2569244E-13
  16968.0253906 1.2527751E-13
  16985.0019531 1.2485562E-13
  17001.9941406 1.2440911E-13
  17019.0058593 1.2395822E-13
  17036.03125   1.2354168E-13
  17053.0761718 1.2312887E-13
  17070.1386718 1.2271266E-13
  17087.2167968 1.2225511E-13
  17104.3144531 1.216222E-13
  17121.4257812 1.2103208E-13
  17138.5566406 1.2083321E-13
  17155.703125  1.2054358E-13
  17172.8671875 1.2011942E-13
  17190.0488281 1.1968506E-13
  17207.2480468 1.1922103E-13
  17224.4628906 1.1871828E-13
  17241.6953125 1.1822767E-13
  17258.9453125 1.1777692E-13
  17276.2128906 1.1725066E-13
  17293.4980468 1.1660754E-13
  17310.8007812 1.1573266E-13
  17328.1191406 1.1416002E-13
  17345.4570312 1.10872296E-13
  17362.8125    1.05654885E-13
  17380.1835937 1.04844823E-13
  17397.5722656 1.0932544E-13
  17414.9785156 1.1210684E-13
  17432.4023437 1.1285985E-13
  17449.8417968 1.1288919E-13
  17467.3007812 1.12674105E-13
  17484.7773437 1.12422726E-13
  17502.2714843 1.1213099E-13
  17519.78125   1.11787065E-13
  17537.3105468 1.1143374E-13
  17554.8554687 1.110629E-13
  17572.4199218 1.106804E-13
  17590.0019531 1.1029547E-13
  17607.6015625 1.0988298E-13
  17625.2167968 1.0945672E-13
  17642.8496093 1.09095784E-13
  17660.5019531 1.087538E-13
  17678.171875  1.0837924E-13
  17695.859375  1.0798134E-13
  17713.5625    1.075789E-13
  17731.2851562 1.0718667E-13
  17749.0253906 1.0681601E-13
  17766.7832031 1.06428314E-13
  17784.5585937 1.0604338E-13
  17802.3535156 1.056792E-13
  17820.1640625 1.05285836E-13
  17837.9921875 1.0489523E-13
  17855.8398437 1.0454142E-13
  17873.7050781 1.0419847E-13
  17891.5859375 1.0384109E-13
  17909.4863281 1.03462154E-13
  17927.4042968 1.03067985E-13
  17945.3417968 1.02679814E-13
  17963.2949218 1.0231465E-13
  17981.2695312 1.0193831E-13
  17999.2597656 1.0153879E-13
  18017.2675781 1.01139596E-13
  18035.2929687 1.0076406E-13
  18053.3378906 1.0038967E-13
  18071.4003906 9.998075E-14
  18089.4804687 9.950343E-14
  18107.578125  9.893567E-14
  18125.6953125 9.8153656E-14
  18143.8300781 9.6669356E-14
  18161.9824218 9.3207716E-14
  18180.1542968 8.8923064E-14
  18198.34375   9.00811E-14 
  18216.5507812 9.392491E-14
  18234.7753906 9.5600136E-14
  18253.0195312 9.5990415E-14
  18271.28125   9.594423E-14
  18289.5625    9.5722184E-14
  18307.8613281 9.546367E-14
  18326.1777343 9.517566E-14
  18344.5136718 9.485961E-14
  18362.8691406 9.4517466E-14
  18381.2402343 9.41703E-14 
  18399.6289062 9.384565E-14
  18418.0390625 9.347288E-14
  18436.4648437 9.311355E-14
  18454.9101562 9.279621E-14
  18473.3769531 9.243753E-14
  18491.859375  9.214547E-14
  18510.359375  9.186427E-14
  18528.8789062 9.153736E-14
  18547.4160156 9.119457E-14
  18565.9726562 9.084691E-14
  18584.5488281 9.0522276E-14
  18603.1445312 9.0191635E-14
  18621.7558593 8.984479E-14
  18640.3867187 8.947445E-14
  18659.0351562 8.904819E-14
  18677.703125  8.8556285E-14
  18696.390625  8.795611E-14
  18715.0976562 8.6866956E-14
  18733.8222656 8.412089E-14
  18752.5644531 7.94077E-14 
  18771.3261718 7.898954E-14
  18790.1074218 8.312331E-14
  18808.90625   8.531458E-14
  18827.7246093 8.578639E-14
  18846.5605468 8.5755276E-14
  18865.4179687 8.5561915E-14
  18884.2929687 8.5354135E-14
  18903.1855468 8.5105995E-14
  18922.0996093 8.480064E-14
  18941.0292968 8.449318E-14
  18959.9824218 8.419042E-14
  18978.9511718 8.3913596E-14
  18997.9394531 8.3651354E-14
  19016.9453125 8.337663E-14
  19035.9726562 8.307647E-14
  19055.0195312 8.278505E-14
  19074.0820312 8.25079E-14 
  19093.1660156 8.221422E-14
  19112.2695312 8.190708E-14
  19131.390625  8.160562E-14
  19150.53125   8.132685E-14
  19169.6914062 8.103673E-14
  19188.8710937 8.073932E-14
  19208.0683593 8.0441425E-14
  19227.2871093 8.014774E-14
  19246.5234375 7.9853896E-14
  19265.7792968 7.954676E-14
  19285.0546875 7.921613E-14
  19304.3496093 7.885826E-14
  19323.6640625 7.851871E-14
  19342.9980468 7.824447E-14
  19362.3496093 7.791335E-14
  19381.7207031 7.7439276E-14
  19401.1132812 7.67169E-14 
  19420.5234375 7.522159E-14
  19439.953125  7.1935804E-14
  19459.4042968 6.975749E-14
  19478.8730468 7.214294E-14
  19498.3613281 7.446841E-14
  19517.8691406 7.509889E-14
  19537.3964843 7.524833E-14
  19556.9433593 7.519095E-14
  19576.5117187 7.500132E-14
  19596.0976562 7.477036E-14
  19615.703125  7.4517195E-14
  19635.3300781 7.4252846E-14
  19654.9746093 7.399758E-14
  19674.6386718 7.375495E-14
  19694.3242187 7.349514E-14
  19714.0273437 7.316985E-14
  19733.7519531 7.282625E-14
  19753.4941406 7.260988E-14
  19773.2578125 7.230063E-14
  19793.0429687 7.1973237E-14
  19812.84375   7.183515E-14
  19832.6660156 7.164066E-14
  19852.5097656 7.134487E-14
  19872.3710937 7.10494E-14 
  19892.2558593 7.0851345E-14
  19912.15625   7.062719E-14
  19932.078125  7.033886E-14
  19952.0214843 7.008148E-14
  19971.9824218 6.985538E-14
  19991.9648437 6.961551E-14
  20011.9648437 6.936964E-14
  20031.9882812 6.911307E-14
  20052.03125   6.88638E-14 
  20072.0917968 6.8618735E-14
  20092.1757812 6.8375135E-14
  20112.2753906 6.812797E-14
  20132.4003906 6.7884534E-14
  20152.5410156 6.763898E-14
  20172.703125  6.739425E-14
  20192.8867187 6.714708E-14
  20213.0898437 6.6899916E-14
  20233.3125    6.665518E-14
  20253.5566406 6.641401E-14
  20273.8203125 6.6173E-14  
  20294.1035156 6.592389E-14
  20314.4082031 6.5682716E-14
  20334.7324218 6.5453705E-14
  20355.078125  6.521837E-14
  20375.4433593 6.497233E-14
  20395.8261718 6.473295E-14
  20416.234375  6.4509284E-14
  20436.6601562 6.4281886E-14
  20457.1074218 6.4047366E-14
  20477.5742187 6.381235E-14
  20498.0625    6.357929E-14
  20518.5703125 6.334833E-14
  20539.0996093 6.311785E-14
  20559.6464843 6.289046E-14
  20580.21875   6.26595E-14 
  20600.8085937 6.2419626E-14
  20621.4199218 6.218299E-14
  20642.0507812 6.1961436E-14
  20662.7050781 6.1744575E-14
  20683.3769531 6.151735E-14
  20704.0703125 6.128347E-14
  20724.7871093 6.106386E-14
  20745.5214843 6.085106E-14
  20766.2773437 6.063759E-14
  20787.0527343 6.041879E-14
  20807.8515625 6.0194315E-14
  20828.6679687 5.997146E-14
  20849.5078125 5.975103E-14
  20870.3671875 5.9537905E-14
  20891.2480468 5.93191E-14 
  20912.1523437 5.907923E-14
  20933.0722656 5.884211E-14
  20954.015625  5.86481E-14 
  20974.9785156 5.845637E-14
  20995.9648437 5.824939E-14
  21016.9726562 5.803659E-14
  21037.9980468 5.782151E-14
  21059.0488281 5.760027E-14
  21080.1171875 5.738747E-14
  21101.2089843 5.71865E-14 
  21122.3203125 5.698195E-14
  21143.453125  5.6774494E-14
  21164.609375  5.6558125E-14
  21185.78125   5.6347752E-14
  21206.9785156 5.6144505E-14
  21228.1953125 5.594418E-14
  21249.4335937 5.5739637E-14
  21270.6972656 5.553623E-14
  21291.9765625 5.5337686E-14
  21313.2773437 5.5137196E-14
  21334.6054687 5.492715E-14
  21355.9472656 5.469586E-14
  21377.3144531 5.4491164E-14
  21398.703125  5.4317743E-14
  21420.109375  5.412665E-14
  21441.5429687 5.3922273E-14
  21462.9941406 5.372016E-14
  21484.4667968 5.3517083E-14
  21505.9648437 5.3310434E-14
  21527.4824218 5.309617E-14
  21549.0175781 5.287153E-14
  21570.578125  5.2617233E-14
  21592.1601562 5.2299883E-14
  21613.7617187 5.1773944E-14
  21635.3886718 5.0527575E-14
  21657.0332031 4.838849E-14
  21678.6992187 4.8133216E-14
  21700.390625  4.989418E-14
  21722.1015625 5.081202E-14
  21743.8339843 5.0969235E-14
  21765.5898437 5.090197E-14
  21787.3671875 5.075643E-14
  21809.1640625 5.060375E-14
  21830.984375  5.0441676E-14
  21852.8261718 5.0276355E-14
  21874.6914062 5.00924E-14 
  21896.5742187 4.9904877E-14
  21918.4824218 4.9745554E-14
  21940.4121093 4.9575053E-14
  21962.3652343 4.9396278E-14
  21984.3359375 4.9217673E-14
  22006.3320312 4.903809E-14
  22028.3515625 4.8855752E-14
  22050.390625  4.8656398E-14
  22072.4511718 4.844732E-14
  22094.5332031 4.8288484E-14
  22116.6386718 4.8140674E-14
  22138.765625  4.7972114E-14
  22160.9179687 4.779788E-14
  22183.0898437 4.762235E-14
  22205.28125   4.7449417E-14
  22227.5       4.7275182E-14
  22249.7382812 4.7099328E-14
  22272.0       4.692299E-14
  22294.28125   4.6754918E-14
  22316.5859375 4.658506E-14
  22338.9160156 4.6414556E-14
  22361.2636718 4.624259E-14
  22383.6386718 4.6066412E-14
  22406.03125   4.5896233E-14
  22428.4492187 4.5732213E-14
  22450.8886718 4.5566083E-14
  22473.3496093 4.5395904E-14
  22495.8359375 4.5227666E-14
  22518.34375   4.5059917E-14
  22540.8710937 4.4889412E-14
  22563.4238281 4.4721666E-14
  22586.0       4.4561533E-14
  22608.5957031 4.439589E-14
  22631.2148437 4.4218416E-14
  22653.859375  4.405634E-14
  22676.5234375 4.3905932E-14
  22699.2109375 4.3750824E-14
  22721.921875  4.3587126E-14
  22744.65625   4.3432993E-14
  22767.4101562 4.3277075E-14
  22790.1894531 4.311743E-14
  22812.9921875 4.29513E-14 
  22835.8164062 4.2797326E-14
  22858.6640625 4.2644975E-14
  22881.5332031 4.2489707E-14
  22904.4257812 4.2331356E-14
  22927.3417968 4.2177382E-14
  22950.28125   4.202341E-14
  22973.2421875 4.1869764E-14
  22996.2265625 4.1717572E-14
  23019.234375  4.156587E-14
  23042.265625  4.1411898E-14
  23065.3203125 4.1261648E-14
  23088.3964843 4.1108488E-14
  23111.4980468 4.095808E-14
  23134.6210937 4.0807835E-14
  23157.765625  4.0656294E-14
  23180.9355468 4.0506403E-14
  23204.1289062 4.0359646E-14
  23227.3457031 4.0212188E-14
  23250.5800781 4.0064536E-14
  23273.84375   3.991745E-14
  23297.1289062 3.9770802E-14
  23320.4375    3.96238E-14 
  23343.7695312 3.9475303E-14
  23367.125     3.932574E-14
  23390.5039062 3.9179224E-14
  23413.90625   3.9040487E-14
  23437.3320312 3.89011E-14 
  23460.78125   3.8758794E-14
  23484.2519531 3.8616442E-14
  23507.75      3.847419E-14
  23531.2675781 3.833226E-14
  23554.8105468 3.8189778E-14
  23578.3789062 3.8046338E-14
  23601.9667968 3.790744E-14
  23625.5820312 3.7770974E-14
  23649.21875   3.7632576E-14
  23672.8808593 3.7492738E-14
  23696.5664062 3.7353757E-14
  23720.2753906 3.7216266E-14
  23744.0058593 3.707923E-14
  23767.7617187 3.6943535E-14
  23791.5410156 3.680788E-14
  23815.3457031 3.666974E-14
  23839.171875  3.6528977E-14
  23863.0214843 3.6390565E-14
  23886.8964843 3.6260823E-14
  23910.796875  3.6129167E-14
  23934.7207031 3.5994418E-14
  23958.6660156 3.5863866E-14
  23982.6367187 3.5734687E-14
  24006.6308593 3.5601415E-14
  24030.6523437 3.5464944E-14
  24054.6933593 3.5333824E-14
  24078.7617187 3.5209188E-14
  24102.8515625 3.5082394E-14
  24126.9648437 3.4950467E-14
  24151.1035156 3.481226E-14
  24175.265625  3.4678793E-14
  24199.453125  3.455905E-14
  24223.6660156 3.443968E-14
  24247.9023437 3.4313535E-14
  24272.1621093 3.418222E-14
  24296.4453125 3.404316E-14
  24320.7558593 3.3906576E-14
  24345.0859375 3.3789184E-14
  24369.4453125 3.3676942E-14
  24393.828125  3.3559364E-14
  24418.2324218 3.343764E-14
  24442.6640625 3.3308303E-14
  24467.1171875 3.3167215E-14
  24491.5957031 3.3023128E-14
  24516.0996093 3.2907894E-14
  24540.6289062 3.2805495E-14
  24565.1816406 3.269126E-14
  24589.7578125 3.257672E-14
  24614.3613281 3.246249E-14
  24638.9882812 3.2338014E-14
  24663.6386718 3.220108E-14
  24688.3144531 3.204759E-14
  24713.015625  3.1911932E-14
  24737.7382812 3.1819985E-14
  24762.4902343 3.173319E-14
  24787.265625  3.162517E-14
  24812.0664062 3.149371E-14
  24836.8886718 3.136708E-14
  24861.7382812 3.1245067E-14
  24886.6132812 3.112821E-14
  24911.5136718 3.1014494E-14
  24936.4355468 3.0856973E-14
  24961.3847656 3.070697E-14
  24986.3574218 3.0632015E-14
  25011.359375  3.0568833E-14
  25036.3808593 3.0479237E-14
  25061.4316406 3.0375994E-14
  25086.5039062 3.026684E-14
  25111.6054687 3.0155166E-14
  25136.7265625 3.0043286E-14
  25161.8789062 2.9928564E-14
  25187.0527343 2.980709E-14
  25212.25      2.967096E-14
  25237.4746093 2.9495073E-14
  25262.7265625 2.930765E-14
  25288.0       2.9228996E-14
  25313.3007812 2.9204944E-14
  25338.6289062 2.9140596E-14
  25363.9785156 2.9048653E-14
  25389.3554687 2.8942977E-14
  25414.7578125 2.882385E-14
  25440.1855468 2.8719635E-14
  25465.6367187 2.862876E-14
  25491.1152343 2.8524302E-14
  25516.6191406 2.8411576E-14
  25542.1464843 2.829702E-14
  25567.703125  2.8178543E-14
  25593.2832031 2.8037712E-14
  25618.890625  2.7835085E-14
  25644.5214843 2.7610869E-14
  25670.1777343 2.7551549E-14
  25695.8632812 2.7579847E-14
  25721.5703125 2.7546895E-14
  25747.3046875 2.7471128E-14
  25773.0644531 2.7380802E-14
  25798.8515625 2.7284202E-14
  25824.6640625 2.7181577E-14
  25850.5       2.7068042E-14
  25876.3632812 2.6962483E-14
  25902.2539062 2.6876776E-14
  25928.1679687 2.6780744E-14
  25954.109375  2.6678848E-14
  25980.078125  2.6577387E-14
  26006.0703125 2.6472653E-14
  26032.0898437 2.6362035E-14
  26058.1328125 2.6237349E-14
  26084.203125  2.6064252E-14
  26110.3007812 2.5786307E-14
  26136.4257812 2.5555477E-14
  26162.5742187 2.5582707E-14
  26188.75      2.5592562E-14
  26214.953125  2.5349672E-14
  26241.1816406 2.4645806E-14
  26267.4335937 2.4026801E-14
  26293.7148437 2.4490147E-14
  26320.0214843 2.501944E-14
  26346.3554687 2.5128E-14  
  26372.7148437 2.5085001E-14
  26399.1015625 2.4993006E-14
  26425.5136718 2.4915145E-14
  26451.9511718 2.48502E-14 
  26478.4160156 2.4768028E-14
  26504.9082031 2.4677475E-14
  26531.4257812 2.4582013E-14
  26557.9707031 2.4486469E-14
  26584.5410156 2.4398088E-14
  26611.140625  2.4299303E-14
  26637.7636718 2.4186513E-14
  26664.4140625 2.4075214E-14
  26691.0917968 2.3951857E-14
  26717.796875  2.3730573E-14
  26744.5292968 2.3378414E-14
  26771.2851562 2.3254263E-14
  26798.0722656 2.3425967E-14
  26824.8828125 2.3506665E-14
  26851.7207031 2.347587E-14
  26878.5839843 2.3409695E-14
  26905.4785156 2.3332514E-14
  26932.3964843 2.3251151E-14
  26959.3417968 2.3167681E-14
  26986.3164062 2.308324E-14
  27013.3144531 2.2998344E-14
  27040.3417968 2.2912655E-14
  27067.3964843 2.2824663E-14
  27094.4765625 2.2738632E-14
  27121.5859375 2.2656217E-14
  27148.71875   2.257427E-14
  27175.8808593 2.2490605E-14
  27203.0703125 2.240636E-14
  27230.2871093 2.2322533E-14
  27257.53125   2.2238254E-14
  27284.8046875 2.2154572E-14
  27312.0996093 2.2072481E-14
  27339.4257812 2.1989546E-14
  27366.7792968 2.190478E-14
  27394.1621093 2.1818588E-14
  27421.5683593 2.1734437E-14
  27449.0058593 2.1648651E-14
  27476.4667968 2.1555943E-14
  27503.9570312 2.1447676E-14
  27531.4746093 2.128884E-14
  27559.0175781 2.0982839E-14
  27586.5917968 2.064152E-14
  27614.1933593 2.0703953E-14
  27641.8203125 2.09089E-14 
  27669.4746093 2.0951397E-14
  27697.1582031 2.0912449E-14
  27724.8710937 2.0850018E-14
  27752.609375  2.0779677E-14
  27780.3730468 2.0706335E-14
  27808.1699218 2.0631781E-14
  27835.9921875 2.0556204E-14
  27863.84375   2.0480564E-14
  27891.71875   2.0404988E-14
  27919.625     2.032886E-14
  27947.5585937 2.0253413E-14
  27975.5214843 2.0177885E-14
  28003.5097656 2.0101954E-14
  28031.5273437 2.0026425E-14
  28059.5722656 1.9951822E-14
  28087.6445312 1.9877639E-14
  28115.7460937 1.9803278E-14
  28143.8769531 1.9729095E-14
  28172.0351562 1.9655545E-14
  28200.2207031 1.9581848E-14
  28228.4375    1.9508477E-14
  28256.6796875 1.9435364E-14
  28284.9492187 1.93628E-14 
  28313.2460937 1.929006E-14
  28341.5742187 1.9217938E-14
  28369.9316406 1.9145457E-14
  28398.3144531 1.9072522E-14
  28426.7285156 1.9000236E-14
  28455.1679687 1.8928923E-14
  28483.6386718 1.885761E-14
  28512.1347656 1.8785485E-14
  28540.6621093 1.8712454E-14
  28569.2167968 1.8638188E-14
  28597.8007812 1.8562822E-14
  28626.4140625 1.8482108E-14
  28655.0527343 1.8383517E-14
  28683.7207031 1.8217714E-14
  28712.4199218 1.7883268E-14
  28741.1464843 1.76197E-14 
  28769.9023437 1.7787448E-14
  28798.6875    1.7965359E-14
  28827.5       1.7979914E-14
  28856.3417968 1.7936804E-14
  28885.2128906 1.7879864E-14
  28914.1113281 1.7818812E-14
  28943.0410156 1.7755278E-14
  28971.9980468 1.7690446E-14
  29000.9824218 1.7625405E-14
  29030.0       1.7559764E-14
  29059.0449218 1.7494285E-14
  29088.1171875 1.7429048E-14
  29117.2207031 1.736399E-14
  29146.3515625 1.729835E-14
  29175.5117187 1.7233307E-14
  29204.703125  1.71695E-14 
  29233.921875  1.710543E-14
  29263.1699218 1.7040714E-14
  29292.4472656 1.6976094E-14
  29321.7539062 1.6912834E-14
  29351.0917968 1.6849625E-14
  29380.4570312 1.6785977E-14
  29409.8535156 1.672301E-14
  29439.2773437 1.666061E-14
  29468.7324218 1.6598161E-14
  29498.2148437 1.6535811E-14
  29527.7265625 1.6473783E-14
  29557.2695312 1.6412017E-14
  29586.8417968 1.6350396E-14
  29616.4414062 1.6289001E-14
  29646.0742187 1.622746E-14
  29675.7363281 1.616647E-14
  29705.4277343 1.6105498E-14
  29735.1464843 1.6045123E-14
  29764.8964843 1.598514E-14
  29794.6757812 1.592514E-14
  29824.4863281 1.5865171E-14
  29854.3242187 1.5805608E-14
  29884.1953125 1.5745882E-14
  29914.0917968 1.5686691E-14
  29944.0214843 1.5627727E-14
  29973.9804687 1.5568408E-14
  30003.9707031 1.5509654E-14
  30033.9902343 1.5451631E-14
  30064.0390625 1.5393331E-14
  30094.1171875 1.5334856E-14
  30124.2265625 1.5276832E-14
  30154.3652343 1.5218483E-14
  30184.5332031 1.5159974E-14
  30214.7363281 1.5101091E-14
  30244.9648437 1.5040557E-14
  30275.2246093 1.497699E-14
  30305.515625  1.490438E-14
  30335.8339843 1.4792871E-14
  30366.1875    1.454695E-14
  30396.5703125 1.4255942E-14
  30426.9785156 1.4332848E-14
  30457.421875  1.4523694E-14
  30487.8945312 1.4559317E-14
  30518.3945312 1.4528638E-14
  30548.9316406 1.4482446E-14
  30579.4960937 1.443209E-14
  30610.0898437 1.437982E-14
  30640.7148437 1.4326495E-14
  30671.3710937 1.427288E-14
  30702.0585937 1.42198E-14 
  30732.7753906 1.416685E-14
  30763.5234375 1.4113964E-14
  30794.3007812 1.4060851E-14
  30825.1132812 1.4007609E-14
  30855.953125  1.3954285E-14
  30886.8242187 1.3901482E-14
  30917.7246093 1.3849746E-14
  30948.6601562 1.3797914E-14
  30979.6230468 1.3746017E-14
  31010.6171875 1.3694152E-14
  31041.6445312 1.3642662E-14
  31072.7011718 1.3590992E-14
  31103.7890625 1.3539241E-14
  31134.9082031 1.3484701E-14
  31166.0585937 1.3430405E-14
  31197.2402343 1.33833704E-14
  31228.453125  1.3336027E-14
  31259.6972656 1.3285394E-14
  31290.9726562 1.3234779E-14
  31322.28125   1.31854265E-14
  31353.6191406 1.3136074E-14
  31384.9863281 1.3086592E-14
  31416.3886718 1.3037337E-14
  31447.8203125 1.29880974E-14
  31479.28125   1.2936963E-14
  31510.7773437 1.2881127E-14
  31542.3046875 1.2831937E-14
  31573.8613281 1.2790656E-14
  31605.453125  1.2744788E-14
  31637.0722656 1.269657E-14
  31668.7265625 1.2648547E-14
  31700.4101562 1.2600573E-14
  31732.125     1.25531655E-14
  31763.875     1.2505887E-14
  31795.6542968 1.245835E-14
  31827.4648437 1.2411186E-14
  31859.3085937 1.2364508E-14
  31891.1855468 1.2317911E-14
  31923.0898437 1.22713144E-14
  31955.0292968 1.2225122E-14
  31987.0019531 1.21787685E-14
  32019.0039062 1.21323324E-14
  32051.0390625 1.2086546E-14
  32083.1074218 1.20411646E-14
  32115.2050781 1.1995783E-14
  32147.3359375 1.1949834E-14
  32179.5       1.1904291E-14
  32211.6933593 1.1859672E-14
  32243.9238281 1.1815101E-14
  32276.1835937 1.1770334E-14
  32308.4765625 1.1725926E-14
  32340.7988281 1.1681436E-14
  32373.1582031 1.1637383E-14
  32405.5449218 1.15928936E-14
  32437.96875   1.1548889E-14
  32470.4199218 1.1505533E-14
  32502.9101562 1.1462307E-14
  32535.4277343 1.1418822E-14
  32567.9804687 1.1375467E-14
  32600.5664062 1.1332355E-14
  32633.1796875 1.1289129E-14
  32665.8300781 1.1246373E-14
  32698.5117187 1.1203471E-14
  32731.2285156 1.11605205E-14
  32763.9726562 1.111736E-14
  32796.7578125 1.1073647E-14
  32829.5664062 1.10289145E-14
  32862.4140625 1.0981054E-14
  32895.2929687 1.0920161E-14
  32928.2070312 1.0796934E-14
  32961.1484375 1.0566899E-14
  32994.125     1.0495828E-14
  33027.1367187 1.064442E-14
  33060.1796875 1.0707516E-14
  33093.2578125 1.0691876E-14
  33126.3671875 1.0658034E-14
  33159.5078125 1.0618569E-14
  33192.6835937 1.0576591E-14
  33225.8945312 1.0538795E-14
  33259.1367187 1.05027655E-14
  33292.4140625 1.046406E-14
  33325.7226562 1.0424887E-14
  33359.0625    1.0385551E-14
  33392.4375    1.0346118E-14
  33425.8476562 1.0307058E-14
  33459.2929687 1.0268288E-14
  33492.7695312 1.02295856E-14
  33526.28125   1.019033E-14
  33559.8203125 1.0151836E-14
  33593.3945312 1.01139435E-14
  33627.0078125 1.0075613E-14
  33660.6523437 1.0037329E-14
  33694.328125  9.998837E-15
  33728.0390625 9.960504E-15
  33761.7851562 9.923016E-15
  33795.5625    9.8855445E-15
  33829.375     9.848267E-15
  33863.21875   9.811394E-15
  33897.1015625 9.774149E-15
  33931.015625  9.7361414E-15
  33964.9648437 9.69465E-15 
  33998.9453125 9.655266E-15
  34032.9609375 9.622282E-15
  34067.0117187 9.58922E-15 
  34101.0976562 9.5535635E-15
  34135.2148437 9.5169335E-15
  34169.3671875 9.479899E-15
  34203.5546875 9.4448095E-15
  34237.7695312 9.409849E-15
  34272.0273437 9.3739815E-15
  34306.3164062 9.338569E-15
  34340.6367187 9.303479E-15
  34375.0       9.268227E-15
  34409.390625  9.23317E-15 
  34443.8164062 9.198128E-15
  34478.2773437 9.16312E-15 
  34512.7734375 9.128274E-15
  34547.3007812 9.093621E-15
  34581.8671875 9.058824E-15
  34616.4648437 9.024383E-15
  34651.1015625 8.990265E-15
  34685.7695312 8.9560664E-15
  34720.4726562 8.922063E-15
  34755.2109375 8.8884326E-15
  34789.984375  8.854769E-15
  34824.7929687 8.821057E-15
  34859.6289062 8.787459E-15
  34894.5078125 8.754476E-15
  34929.4179687 8.720926E-15
  34964.3671875 8.687992E-15
  34999.3476562 8.654556E-15
  35034.3632812 8.62133E-15 
  35069.4140625 8.588996E-15
  35104.5039062 8.5566294E-15
  35139.625     8.524003E-15
  35174.78125   8.491506E-15
  35209.9765625 8.458248E-15
  35245.203125  8.42559E-15 
  35280.4648437 8.394503E-15
  35315.7617187 8.363515E-15
  35351.0976562 8.33178E-15 
  35386.4648437 8.300094E-15
  35421.8710937 8.2681325E-15
  35457.3085937 8.236236E-15
  35492.7851562 8.205036E-15
  35528.296875  8.174403E-15
  35563.84375   8.143658E-15
  35599.4257812 8.1127E-15  
  35635.0429687 8.081939E-15
  35670.6953125 8.051241E-15
  35706.3828125 8.019701E-15
  35742.109375  7.987983E-15
  35777.8671875 7.957869E-15
  35813.6601562 7.928858E-15
  35849.4921875 7.899359E-15
  35885.359375  7.86978E-15 
  35921.2617187 7.839796E-15
  35957.203125  7.8098115E-15
  35993.1757812 7.779715E-15
  36029.1875    7.7490335E-15
  36065.234375  7.717914E-15
  36101.3164062 7.688789E-15
  36137.4375    7.66148E-15 
  36173.59375   7.633278E-15
  36209.7851562 7.604591E-15
  36246.015625  7.57566E-15 
  36282.2773437 7.5468425E-15
  36318.578125  7.518074E-15
  36354.9140625 7.4891434E-15
  36391.2890625 7.459451E-15
  36427.6953125 7.428608E-15
  36464.140625  7.398624E-15
  36500.625     7.371849E-15
  36537.1445312 7.346273E-15
  36573.703125  7.3191245E-15
  36610.2929687 7.2914095E-15
  36646.921875  7.264424E-15
  36683.5859375 7.236708E-15
  36720.2851562 7.208621E-15
  36757.0234375 7.180906E-15
  36793.796875  7.151942E-15
  36830.6171875 7.123336E-15
  36867.4648437 7.096318E-15
  36904.3476562 7.0671766E-15
  36941.2695312 7.037516E-15
  36978.2304687 7.011179E-15
  37015.2265625 6.98724E-15 
  37052.2617187 6.9637713E-15
  37089.3320312 6.938131E-15
  37126.4414062 6.9116156E-15
  37163.5859375 6.885246E-15
  37200.765625  6.859038E-15
  37237.984375  6.8322952E-15
  37275.2421875 6.8047747E-15
  37312.5351562 6.77304E-15 
  37349.8671875 6.717933E-15
  37387.234375  6.599342E-15
  37424.640625  6.5190332E-15
  37462.0820312 6.5807358E-15
  37499.5664062 6.6195693E-15
  37537.0859375 6.6137345E-15
  37574.6367187 6.5973973E-15
  37612.2304687 6.57576E-15 
  37649.8632812 6.552291E-15
  37687.5351562 6.5280283E-15
  37725.2382812 6.5034415E-15
  37762.9804687 6.47879E-15 
  37800.7617187 6.4542835E-15
  37838.5859375 6.4298906E-15
  37876.4414062 6.40545E-15 
  37914.3359375 6.3809114E-15
  37952.2695312 6.3567947E-15
  37990.2421875 6.332483E-15
  38028.2539062 6.3081716E-15
  38066.3007812 6.2837787E-15
  38104.3828125 6.258446E-15
  38142.5078125 6.2306177E-15
  38180.6679687 6.1989314E-15
  38218.8671875 6.172675E-15
  38257.1054687 6.156873E-15
  38295.3828125 6.139158E-15
  38333.6953125 6.117488E-15
  38372.046875  6.094797E-15
  38410.4375    6.0719773E-15
  38448.8710937 6.049043E-15
  38487.3398437 6.0261905E-15
  38525.84375   6.0030944E-15
  38564.3867187 5.979966E-15
  38602.9726562 5.9563027E-15
  38641.59375   5.92862E-15 
  38680.2539062 5.900095E-15
  38718.9570312 5.881537E-15
  38757.6953125 5.864162E-15
  38796.4726562 5.843416E-15
  38835.2890625 5.8205635E-15
  38874.140625  5.7966086E-15
  38913.0351562 5.773318E-15
  38951.96875   5.751551E-15
  38990.9375    5.7280506E-15
  39029.9492187 5.6998164E-15
  39069.0       5.665537E-15
  39108.0859375 5.6426845E-15
  39147.2148437 5.63437E-15 
  39186.3828125 5.6213714E-15
  39225.5859375 5.602441E-15
  39264.8320312 5.581808E-15
  39304.1171875 5.5607544E-15
  39343.4414062 5.539636E-15
  39382.8046875 5.518647E-15
  39422.2070312 5.4979015E-15
  39461.6484375 5.47688E-15 
  39501.1289062 5.4555995E-15
  39540.6523437 5.4347074E-15
  39580.2109375 5.4142698E-15
  39619.8125    5.3937673E-15
  39659.4492187 5.372778E-15
  39699.1289062 5.351141E-15
  39738.8515625 5.3299087E-15
  39778.609375  5.3096493E-15
  39818.40625   5.289746E-15
  39858.2460937 5.2701026E-15
  39898.1210937 5.250297E-15
  39938.0390625 5.230037E-15
  39978.0       5.2096478E-15
  40017.9921875 5.189761E-15
  40058.0351562 5.170069E-15
  40098.109375  5.1491933E-15
  40138.2304687 5.1248005E-15
  40178.3867187 5.0913804E-15
  40218.5898437 5.0582355E-15
  40258.8242187 5.049678E-15
  40299.1015625 5.045383E-15
  40339.421875  5.031039E-15
  40379.78125   5.012611E-15
  40420.1835937 4.9916223E-15
  40460.6210937 4.9577482E-15
  40501.1054687 4.878979E-15
  40541.625     4.8188484E-15
  40582.1875    4.8619124E-15
  40622.7890625 4.889109E-15
  40663.4335937 4.8795785E-15
  40704.1171875 4.862755E-15
  40744.8398437 4.844732E-15
  40785.6054687 4.8268223E-15
  40826.4101562 4.808232E-15
  40867.2578125 4.7895935E-15
  40908.1445312 4.7711494E-15
  40949.0742187 4.753321E-15
  40990.0429687 4.735249E-15
  41031.0546875 4.717421E-15
  41072.1054687 4.6994303E-15
  41113.1992187 4.6811966E-15
  41154.3320312 4.6633683E-15
  41195.5078125 4.64554E-15 
  41236.7226562 4.6278407E-15
  41277.9804687 4.610207E-15
  41319.2773437 4.5922162E-15
  41360.6171875 4.574388E-15
  41402.0       4.556965E-15
  41443.421875  4.5391848E-15
  41484.8867187 4.521713E-15
  41526.390625  4.5042895E-15
  41567.9375    4.486461E-15
  41609.5273437 4.4673365E-15
  41651.1601562 4.4418094E-15
  41692.8320312 4.404208E-15
  41734.546875  4.3805118E-15
  41776.296875  4.383948E-15
  41818.09375   4.3803013E-15
  41859.9335937 4.367092E-15
  41901.8164062 4.3512896E-15
  41943.7382812 4.33492E-15 
  41985.703125  4.317902E-15
  42027.7109375 4.300187E-15
  42069.7578125 4.283947E-15
  42111.8476562 4.2686628E-15
  42153.984375  4.2530714E-15
  42196.1601562 4.2370252E-15
  42238.375     4.2208177E-15
  42280.6328125 4.204805E-15
  42322.9335937 4.188727E-15
  42365.28125   4.1725677E-15
  42407.6640625 4.1565546E-15
  42450.0976562 4.140428E-15
  42492.5664062 4.1245444E-15
  42535.078125  4.1090174E-15
  42577.6328125 4.0933447E-15
  42620.234375  4.077542E-15
  42662.8789062 4.061934E-15
  42705.5625    4.0464445E-15
  42748.2851562 4.0309383E-15
  42791.0546875 4.0154973E-15
  42833.875     4.000095E-15
  42876.7226562 3.9847322E-15
  42919.6210937 3.969476E-15
  42962.5625    3.9542615E-15
  43005.546875  3.9390734E-15
  43048.578125  3.923976E-15
  43091.6445312 3.9088622E-15
  43134.7578125 3.8937893E-15
  43177.9101562 3.878951E-15
  43221.1171875 3.8640644E-15
  43264.3554687 3.8491888E-15
  43307.640625  3.8342666E-15
  43350.9726562 3.8195502E-15
  43394.3398437 3.805036E-15
  43437.7578125 3.7904085E-15
  43481.2226562 3.7756875E-15
  43524.7226562 3.761027E-15
  43568.265625  3.746513E-15
  43611.859375  3.731732E-15
  43655.4921875 3.7158806E-15
  43699.1679687 3.6949614E-15
  43742.890625  3.660885E-15
  43786.65625   3.6354777E-15
  43830.4648437 3.6409334E-15
  43874.3125    3.642136E-15
  43918.2109375 3.632014E-15
  43962.1523437 3.6189504E-15
  44006.140625  3.6050887E-15
  44050.1640625 3.591239E-15
  44094.2382812 3.5778515E-15
  44138.3554687 3.564383E-15
  44182.515625  3.5507877E-15
  44226.71875   3.5371833E-15
  44270.9648437 3.5236126E-15
  44315.2578125 3.509985E-15
  44359.59375   3.496489E-15
  44403.9804687 3.4831498E-15
  44448.4023437 3.469811E-15
  44492.875     3.4564397E-15
  44537.3867187 3.4432097E-15
  44581.9492187 3.429997E-15
  44626.5546875 3.4168523E-15
  44671.203125  3.403723E-15
  44715.8945312 3.3906075E-15
  44760.6367187 3.3776006E-15
  44805.4179687 3.3647077E-15
  44850.25      3.3518064E-15
  44895.1171875 3.338897E-15
  44940.0351562 3.3260684E-15
  44984.9960937 3.3132318E-15
  45030.0039062 3.3002513E-15
  45075.0585937 3.2874E-15  
  45120.15625   3.275063E-15
  45165.3007812 3.2627093E-15
  45210.484375  3.2502086E-15
  45255.71875   3.2377252E-15
  45300.9960937 3.2253056E-15
  45346.3203125 3.2129228E-15
  45391.6875    3.20054E-15 
  45437.1015625 3.1881818E-15
  45482.5625    3.1758721E-15
  45528.0664062 3.1637083E-15
  45573.6171875 3.1516285E-15
  45619.2148437 3.1395507E-15
  45664.859375  3.1273981E-15
  45710.5429687 3.1153444E-15
  45756.28125   3.1034237E-15
  45802.0585937 3.091568E-15
  45847.8867187 3.0796987E-15
  45893.7539062 3.0678024E-15
  45939.6757812 3.055987E-15
  45985.6367187 3.0443095E-15
  46031.640625  3.0325831E-15
  46077.6953125 3.0208975E-15
  46123.796875  3.009147E-15
  46169.9453125 2.9972132E-15
  46216.1367187 2.985772E-15
  46262.375     2.9744381E-15
  46308.6640625 2.9628901E-15
  46354.9921875 2.9514315E-15
  46401.3671875 2.939475E-15
  46447.796875  2.9246076E-15
  46494.265625  2.8946186E-15
  46540.7851562 2.8523085E-15
  46587.3515625 2.853894E-15
  46633.9570312 2.8705877E-15
  46680.6171875 2.8568355E-15
  46727.3203125 2.8282386E-15
  46774.0703125 2.8245627E-15
  46820.8710937 2.832292E-15
  46867.7109375 2.8277263E-15
  46914.6015625 2.8180536E-15
  46961.5429687 2.807556E-15
  47008.5234375 2.7969155E-15
  47055.5585937 2.7862378E-15
  47102.640625  2.7755732E-15
  47149.765625  2.7649135E-15
  47196.9375    2.7543006E-15
  47244.15625   2.7437174E-15
  47291.421875  2.733166E-15
  47338.7382812 2.7226682E-15
  47386.1015625 2.7121931E-15
  47433.5078125 2.7017151E-15
  47480.96875   2.6912854E-15
  47528.4726562 2.6809935E-15
  47576.0234375 2.6706936E-15
  47623.625     2.6604017E-15
  47671.2695312 2.650163E-15
  47718.9648437 2.6399768E-15
  47766.7109375 2.6298664E-15
  47814.5039062 2.6197367E-15
  47862.3398437 2.6096556E-15
  47910.2265625 2.5996034E-15
  47958.1601562 2.5896148E-15
  48006.1445312 2.579639E-15
  48054.171875  2.569728E-15
  48102.2460937 2.559833E-15
  48150.375     2.5499251E-15
  48198.5507812 2.5401084E-15
  48246.7734375 2.5303707E-15
  48295.0429687 2.520651E-15
  48343.3671875 2.5109294E-15
  48391.7304687 2.5012423E-15
  48440.1445312 2.4916018E-15
  48488.6132812 2.481991E-15
  48537.125     2.472456E-15
  48585.6835937 2.4629791E-15
  48634.2929687 2.453522E-15
  48682.9570312 2.4440244E-15
  48731.6640625 2.4345948E-15
  48780.4140625 2.425204E-15
  48829.21875   2.4158472E-15
  48878.0742187 2.4065326E-15
  48926.9726562 2.3973059E-15
  48975.9296875 2.388108E-15
  49024.9296875 2.3789102E-15
  49073.9765625 2.3696992E-15
  49123.078125  2.3605955E-15
  49172.2226562 2.3514899E-15
  49221.421875  2.3423536E-15
  49270.6679687 2.333313E-15
  49319.9648437 2.324412E-15
  49369.3046875 2.315525E-15
  49418.6953125 2.3066319E-15
  49468.1445312 2.2977372E-15
  49517.6367187 2.2888603E-15
  49567.1796875 2.2800109E-15
  49616.7695312 2.2711888E-15
  49666.4101562 2.2623575E-15
  49716.1015625 2.253568E-15
  49765.84375   2.2449456E-15
  49815.6367187 2.2364317E-15
  49865.4726562 2.2278739E-15
  49915.3671875 2.2193163E-15
  49965.3046875 2.2107668E-15
  50015.296875  2.2022416E-15
  50065.3359375 2.1937294E-15
  50115.4257812 2.1852154E-15
  50165.5664062 2.176726E-15
  50215.7539062 2.1682508E-15
  50266.0       2.159737E-15
  50316.2890625 2.1514794E-15
  50366.6289062 2.1433836E-15
  50417.0273437 2.1352068E-15
  50467.4648437 2.1270185E-15
  50517.9570312 2.1188159E-15
  50568.4960937 2.1106276E-15
  50619.09375   2.102508E-15
  50669.7382812 2.0944006E-15
  50720.4335937 2.0863163E-15
  50771.1796875 2.0782449E-15
  50821.9765625 2.0701165E-15
  50872.8242187 2.0619185E-15
  50923.7226562 2.0537226E-15
  50974.671875  2.045865E-15
  51025.6679687 2.0381552E-15
  51076.7226562 2.0303704E-15
  51127.8203125 2.022406E-15
  51178.9765625 2.0135193E-15
  51230.1796875 1.9992243E-15
  51281.4375    1.9772792E-15
  51332.7460937 1.9712661E-15
  51384.1054687 1.9776633E-15
  51435.5117187 1.975305E-15
  51486.9765625 1.9685058E-15
  51538.484375  1.961086E-15
  51590.0507812 1.9534975E-15
  51641.6640625 1.9457423E-15
  51693.3320312 1.937914E-15
  51745.0546875 1.9305314E-15
  51796.8242187 1.9234488E-15
  51848.6484375 1.9162168E-15
  51900.5195312 1.9088696E-15
  51952.4453125 1.9015356E-15
  52004.421875  1.894218E-15
  52056.453125  1.886889E-15
  52108.5390625 1.87961E-15 
  52160.6679687 1.8723619E-15
  52212.8632812 1.8651657E-15
  52265.09375   1.8579663E-15
  52317.390625  1.8507733E-15
  52369.734375  1.843582E-15
  52422.1328125 1.8364377E-15
  52474.5742187 1.8293743E-15
  52527.0742187 1.8222317E-15
  52579.6289062 1.8148816E-15
  52632.2304687 1.8073854E-15
  52684.8945312 1.8004695E-15
  52737.6054687 1.7940143E-15
  52790.3671875 1.7873448E-15
  52843.1875    1.7805247E-15
  52896.0585937 1.7737091E-15
  52948.9765625 1.7668664E-15
  53001.953125  1.7600509E-15
  53054.984375  1.7532632E-15
  53108.0625    1.7464964E-15
  53161.1992187 1.7397542E-15
  53214.3867187 1.7330248E-15
  53267.6289062 1.7263585E-15
  53320.921875  1.7196729E-15
  53374.2695312 1.7130438E-15
  53427.6679687 1.7064036E-15
  53481.125     1.6998313E-15
  53534.6289062 1.6932462E-15
  53588.1914062 1.6866788E-15
  53641.8125    1.680134E-15
  53695.4726562 1.6734726E-15
  53749.1992187 1.6665034E-15
  53802.9726562 1.6594014E-15
  53856.8046875 1.6533023E-15
  53910.6914062 1.6475971E-15
  53964.625     1.6415113E-15
  54018.6210937 1.6352713E-15
  54072.6601562 1.6289747E-15
  54126.7617187 1.6226894E-15
  54180.9140625 1.6164332E-15
  54235.1210937 1.6101851E-15
  54289.3867187 1.6039501E-15
  54343.6992187 1.5977296E-15
  54398.0703125 1.5915463E-15
  54452.5       1.5854279E-15
  54506.9804687 1.5793096E-15
  54561.5078125 1.5730744E-15
  54616.0976562 1.5667242E-15
  54670.7460937 1.5607842E-15
  54725.4414062 1.5549947E-15
  54780.1992187 1.5490497E-15
  54835.0039062 1.543074E-15
  54889.8671875 1.5371128E-15
  54944.7851562 1.5311613E-15
  54999.7539062 1.5252245E-15
  55054.78125   1.5193054E-15
  55109.8632812 1.513341E-15
  55165.0039062 1.507174E-15
  55220.1914062 1.5004527E-15
  55275.4414062 1.4940296E-15
  55330.7460937 1.489057E-15
  55386.1015625 1.4841024E-15
  55441.515625  1.478595E-15
  55496.9882812 1.4729596E-15
  55552.5117187 1.4672869E-15
  55608.0898437 1.4616336E-15
  55663.7265625 1.4560015E-15
  55719.4179687 1.4503693E-15
  55775.1679687 1.4447178E-15
  55830.9648437 1.438951E-15
  55886.8242187 1.4333431E-15
  55942.7421875 1.4279816E-15
  55998.7148437 1.4225246E-15
  56054.734375  1.4170383E-15
  56110.8203125 1.4115633E-15
  56166.9609375 1.4060981E-15
  56223.1523437 1.4006605E-15
  56279.4101562 1.3952147E-15
  56335.7148437 1.3897818E-15
  56392.0742187 1.3844528E-15
  56448.4960937 1.3791204E-15
  56504.9765625 1.3737963E-15
  56561.5078125 1.3684801E-15
  56618.0976562 1.3631722E-15
  56674.7421875 1.3579047E-15
  56731.4453125 1.3526533E-15
  56788.203125  1.3474101E-15
  56845.0273437 1.3421783E-15
  56901.8945312 1.3369562E-15
  56958.828125  1.3317211E-15
  57015.8125    1.3262462E-15
  57072.859375  1.3200224E-15
  57129.9570312 1.3137873E-15
  57187.1171875 1.3096058E-15
  57244.3320312 1.3057483E-15
  57301.609375  1.3010805E-15
  57358.9375    1.2961371E-15
  57416.3242187 1.2911404E-15
  57473.765625  1.2861533E-15
  57531.2695312 1.2811889E-15
  57588.8320312 1.276205E-15
  57646.4492187 1.2712859E-15
  57704.125     1.2663912E-15
  57761.859375  1.2614722E-15
  57819.6484375 1.2566066E-15
  57877.4960937 1.2517265E-15
  57935.4023437 1.246869E-15
  57993.3671875 1.2420392E-15
  58051.390625  1.2372547E-15
  58109.4726562 1.2324556E-15
  58167.609375  1.2276791E-15
  58225.8046875 1.2229303E-15
  58284.0625    1.2182139E-15
  58342.3710937 1.2134861E-15
  58400.7460937 1.2088054E-15
  58459.1679687 1.2041051E-15
  58517.6601562 1.1994453E-15
  58576.203125  1.1948052E-15
  58634.8125    1.1901827E-15
  58693.4765625 1.1855473E-15
  58752.1953125 1.1809281E-15
  58810.984375  1.1763495E-15
  58869.8203125 1.1717497E-15
  58928.7226562 1.1670462E-15
  58987.6796875 1.1612197E-15
  59046.6992187 1.1508468E-15
  59105.7734375 1.1413441E-15
  59164.9101562 1.1430103E-15
  59224.1054687 1.1437122E-15
  59283.3554687 1.1402355E-15
  59342.6679687 1.1359226E-15
  59402.0390625 1.1314786E-15
  59461.4726562 1.1267541E-15
  59520.9648437 1.1210133E-15
  59580.515625  1.1150684E-15
  59640.125     1.1118835E-15
  59699.7929687 1.1092287E-15
  59759.5234375 1.1054393E-15
  59819.3125    1.1012432E-15
  59879.1640625 1.097013E-15
  59939.0742187 1.0927585E-15
  59999.0390625 1.0885445E-15
  60059.0703125 1.0843305E-15
  60119.15625   1.0801327E-15
  60179.3085937 1.0759187E-15
  60239.515625  1.0717678E-15
  60299.78125   1.0676318E-15
  60360.1171875 1.0634988E-15
  60420.5078125 1.0593658E-15
  60480.9570312 1.0552702E-15
  60541.4648437 1.0511776E-15
  60602.0351562 1.0470691E-15
  60662.671875  1.0430122E-15
  60723.3632812 1.0390008E-15
  60784.1210937 1.0349862E-15
  60844.9296875 1.0309537E-15
  60905.8046875 1.0269261E-15
  60966.7421875 1.0229147E-15
  61027.7421875 1.0189438E-15
  61088.8007812 1.0150329E-15
  61149.921875  1.0111204E-15
  61211.0976562 1.0072257E-15
  61272.3359375 1.0032954E-15
  61333.6445312 9.994217E-16
  61395.0078125 9.955529E-16
  61456.4335937 9.916906E-16
  61517.9179687 9.878576E-16
  61579.46875   9.840244E-16
  61641.0820312 9.802124E-16
  61702.75      9.764231E-16
  61764.484375  9.726143E-16
  61826.28125   9.688459E-16
  61888.1367187 9.650972E-16
  61950.0546875 9.613466E-16
  62012.0390625 9.576383E-16
  62074.0820312 9.539105E-16
  62136.1875    9.502071E-16
  62198.3476562 9.464988E-16
  62260.5859375 9.428244E-16
  62322.875     9.391777E-16
  62385.2226562 9.355149E-16
  62447.6445312 9.318276E-16
  62510.1210937 9.282619E-16
  62572.6640625 9.246752E-16
  62635.2695312 9.210819E-16
  62697.9296875 9.175001E-16
  62760.6601562 9.138452E-16
  62823.4570312 9.097852E-16
  62886.3085937 9.044448E-16
  62949.2226562 8.99785E-16 
  63012.2070312 8.980833E-16
  63075.25      8.959844E-16
  63138.359375  8.928319E-16
  63201.5273437 8.894284E-16
  63264.7578125 8.859924E-16
  63328.0585937 8.825676E-16
  63391.4140625 8.7915593E-16
  63454.8398437 8.757523E-16
  63518.328125  8.7233244E-16
  63581.8789062 8.689289E-16
  63645.4882812 8.6554956E-16
  63709.1640625 8.6220267E-16
  63772.9101562 8.5887685E-16
  63836.7148437 8.5554944E-16
  63900.5859375 8.522106E-16
  63964.515625  8.4892045E-16
  64028.515625  8.456191E-16
  64092.5703125 8.4235637E-16
  64156.6914062 8.3907925E-16
  64220.8867187 8.358328E-16
  64285.1328125 8.32575E-16 
  64349.453125  8.2933356E-16
  64413.8359375 8.261244E-16
  64478.28125   8.2291045E-16
  64542.7890625 8.197224E-16
  64607.3671875 8.165457E-16
  64672.0078125 8.133495E-16
  64736.7109375 8.1016796E-16
  64801.4765625 8.0700746E-16
  64866.3164062 8.0384374E-16
  64931.2109375 8.007594E-16
  64996.1796875 7.9767994E-16
  65061.2070312 7.946005E-16
  65126.3007812 7.9152105E-16
  65191.4570312 7.884611E-16
  65256.6796875 7.8539944E-16
  65321.96875   7.823475E-16
  65387.3242187 7.793037E-16
  65452.7460937 7.763021E-16
  65518.234375  7.7326315E-16
  65583.78125   7.702615E-16
  65649.3984375 7.6725817E-16
  65715.0859375 7.64284E-16 
  65780.8359375 7.6132613E-16
  65846.640625  7.5836824E-16
  65912.515625  7.554347E-16
  65978.4609375 7.5249295E-16
  66044.4765625 7.495724E-16
  66110.5546875 7.4665494E-16
  66176.6953125 7.4376026E-16
  66242.90625   7.408802E-16
  66309.1875    7.379822E-16
  66375.5234375 7.3510215E-16
  66441.9375    7.3222854E-16
  66508.4140625 7.2941E-16  
  66574.9453125 7.2659635E-16
  66641.5625    7.237649E-16
  66708.234375  7.2096093E-16
  66774.9765625 7.181651E-16
  66841.7890625 7.1536935E-16
  66908.6640625 7.1259294E-16
  66975.6015625 7.098344E-16
  67042.609375  7.070661E-16
  67109.6875    7.043108E-16
  67176.828125  7.015474E-16
  67244.0390625 6.987921E-16
  67311.3203125 6.9607733E-16
  67378.6640625 6.933998E-16
  67446.078125  6.907126E-16
  67513.5546875 6.879978E-16
  67581.1015625 6.8515823E-16
  67648.71875   6.816136E-16
  67716.3984375 6.771143E-16
  67784.1484375 6.748501E-16
  67851.96875   6.7403976E-16
  67919.8515625 6.720495E-16
  67987.8046875 6.695178E-16
  68055.828125  6.6694405E-16
  68123.9140625 6.643427E-16
  68192.078125  6.6174947E-16
  68260.3046875 6.591481E-16
  68328.59375   6.5659543E-16
  68396.9609375 6.5407514E-16
  68465.390625  6.515354E-16
  68533.890625  6.4901025E-16
  68602.4609375 6.4649806E-16
  68671.09375   6.4398586E-16
  68739.796875  6.414704E-16
  68808.5703125 6.3898096E-16
  68877.421875  6.3650603E-16
  68946.328125  6.3403434E-16
  69015.3046875 6.3156264E-16
  69084.3515625 6.2910397E-16
  69153.4765625 6.2665986E-16
  69222.6640625 6.242255E-16
  69291.921875  6.217894E-16
  69361.2421875 6.1935827E-16
  69430.640625  6.1690283E-16
  69500.109375  6.144717E-16
  69569.6484375 6.121216E-16
  69639.25      6.097796E-16
  69708.921875  6.074262E-16
  69778.6640625 6.0507613E-16
  69848.4765625 6.027211E-16
  69918.3671875 6.003759E-16
  69988.3125    5.980452E-16
  70058.3359375 5.9569514E-16
  70128.4296875 5.933855E-16
  70198.59375   5.910597E-16
  70268.828125  5.8876307E-16
  70339.1328125 5.8649403E-16
  70409.5078125 5.8422493E-16
  70479.953125  5.8193805E-16
  70550.46875   5.7967383E-16
  70621.046875  5.7743713E-16
  70691.7109375 5.751681E-16
  70762.4375    5.7292334E-16
  70833.234375  5.7066727E-16
  70904.1015625 5.6838515E-16
  70975.0390625 5.661534E-16
  71046.046875  5.6394427E-16
  71117.1328125 5.6174E-16  
  71188.28125   5.596088E-16
  71259.5078125 5.5750173E-16
  71330.8046875 5.553137E-16
  71402.1640625 5.531662E-16
  71473.609375  5.510349E-16
  71545.1171875 5.489068E-16
  71616.6953125 5.467593E-16
  71688.34375   5.4461667E-16
  71760.078125  5.425015E-16
  71831.875     5.4039453E-16
  71903.7421875 5.3828753E-16
  71975.6796875 5.3616757E-16
  72047.6875    5.34093E-16 
  72119.7734375 5.3201033E-16
  72191.9296875 5.2994383E-16
  72264.15625   5.2789354E-16
  72336.453125  5.258514E-16
  72408.828125  5.2379787E-16
  72481.2734375 5.217557E-16
  72553.7890625 5.1970543E-16
  72626.375     5.176552E-16
  72699.0546875 5.1554004E-16
  72771.78125   5.135141E-16
  72844.59375   5.116178E-16
  72917.46875   5.0967285E-16
  72990.421875  5.076874E-16
  73063.453125  5.057296E-16
  73136.546875  5.0375707E-16
  73209.71875   5.0179926E-16
  73282.9609375 4.9985103E-16
  73356.2890625 4.979061E-16
  73429.6875    4.9595637E-16
  73503.1484375 4.939952E-16
  73576.6875    4.9209083E-16
  73650.3046875 4.9014594E-16
  73723.984375  4.8810856E-16
  73797.7421875 4.8617987E-16
  73871.5859375 4.843727E-16
  73945.4921875 4.825089E-16
  74019.4765625 4.8062714E-16
  74093.53125   4.787762E-16
  74167.6640625 4.7696907E-16
  74241.859375  4.7511E-16  
  74316.1484375 4.7326563E-16
  74390.5       4.7135795E-16
  74464.921875  4.6923476E-16
  74539.4296875 4.658149E-16
  74614.0       4.6168685E-16
  74688.6484375 4.614956E-16
  74763.3828125 4.617955E-16
  74838.1875    4.603287E-16
  74913.0546875 4.5802714E-16
  74988.0078125 4.539914E-16
  75063.03125   4.4992167E-16
  75138.1328125 4.4998006E-16
  75213.3125    4.507661E-16
  75288.5546875 4.4975316E-16
  75363.8828125 4.480919E-16
  75439.28125   4.4636895E-16
  75514.765625  4.446315E-16
  75590.3203125 4.428924E-16
  75665.9453125 4.411825E-16
  75741.6484375 4.3946772E-16
  75817.4296875 4.3774327E-16
  75893.28125   4.3604144E-16
  75969.2109375 4.343591E-16
  76045.21875   4.3265726E-16
  76121.3125    4.3096843E-16
  76197.46875   4.292942E-16
  76273.703125  4.2762482E-16
  76350.0078125 4.2595053E-16
  76426.3984375 4.2430226E-16
  76502.8671875 4.2264578E-16
  76579.40625   4.209845E-16
  76656.015625  4.193589E-16
  76732.71875   4.1772195E-16
  76809.484375  4.1610118E-16
  76886.3359375 4.1448038E-16
  76963.2578125 4.1285963E-16
  77040.265625  4.1123886E-16
  77117.34375   4.096505E-16
  77194.4921875 4.0803782E-16
  77271.734375  4.0645757E-16
  77349.0390625 4.0487458E-16
  77426.4296875 4.0329594E-16
  77503.8828125 4.0172136E-16
  77581.4375    4.0014956E-16
  77659.0546875 3.9856444E-16
  77736.75      3.9690609E-16
  77814.53125   3.9522046E-16
  77892.375     3.9375322E-16
  77970.3046875 3.9235935E-16
  78048.3203125 3.90876E-16 
  78126.40625   3.8936254E-16
  78204.5703125 3.8784744E-16
  78282.8203125 3.8633575E-16
  78361.140625  3.8483057E-16
  78439.5390625 3.833312E-16
  78518.0234375 3.8183573E-16
  78596.5703125 3.8034784E-16
  78675.203125  3.7886516E-16
  78753.9296875 3.7738915E-16
  78832.71875   3.7591666E-16
  78911.59375   3.744515E-16
  78990.546875  3.7299038E-16
  79069.5625    3.7153605E-16
  79148.6875    3.700887E-16
  79227.8671875 3.686446E-16
  79307.1328125 3.672073E-16
  79386.484375  3.6577633E-16
  79465.90625   3.6434794E-16
  79545.421875  3.6292818E-16
  79625.0       3.6151517E-16
  79704.6640625 3.601035E-16
  79784.40625   3.587004E-16
  79864.234375  3.5730036E-16
  79944.140625  3.5590683E-16
  80024.1171875 3.545167E-16
  80104.1796875 3.531366E-16
  80184.328125  3.5175653E-16
  80264.546875  3.5038455E-16
  80344.859375  3.4901744E-16
  80425.2421875 3.4765925E-16
  80505.7109375 3.4630346E-16
  80586.2578125 3.4495208E-16
  80666.875     3.436044E-16
  80747.59375   3.4226531E-16
  80828.3671875 3.4093142E-16
  80909.2421875 3.396008E-16
  80990.1953125 3.38275E-16 
  81071.2265625 3.3695572E-16
  81152.3359375 3.3563916E-16
  81233.53125   3.343263E-16
  81314.8046875 3.3301884E-16
  81396.15625   3.3169013E-16
  81477.59375   3.3026791E-16
  81559.109375  3.28794E-16 
  81640.7109375 3.2760744E-16
  81722.390625  3.2650854E-16
  81804.15625   3.2528813E-16
  81886.0       3.2403042E-16
  81967.9296875 3.2276945E-16
  82049.9296875 3.2151205E-16
  82132.0234375 3.2025921E-16
  82214.1953125 3.1900926E-16
  82296.453125  3.177645E-16
  82378.7890625 3.1652218E-16
  82461.21875   3.1528832E-16
  82543.7109375 3.1405896E-16
  82626.296875  3.1283317E-16
  82708.9609375 3.1161323E-16
  82791.71875   3.1039925E-16
  82874.5546875 3.0918563E-16
  82957.46875   3.0797784E-16
  83040.46875   3.0677604E-16
  83123.546875  3.055783E-16
  83206.7109375 3.0438492E-16
  83289.953125  3.0319738E-16
  83373.2890625 3.0201455E-16
  83456.703125  3.0083336E-16
  83540.2109375 2.9965797E-16
  83623.796875  2.9849068E-16
  83707.453125  2.9732566E-16
  83791.203125  2.9616436E-16
  83875.0390625 2.9500715E-16
  83958.953125  2.938556E-16
  84042.953125  2.927094E-16
  84127.03125   2.9156873E-16
  84211.203125  2.9043174E-16
  84295.4609375 2.892972E-16
  84379.796875  2.8816834E-16
  84464.21875   2.8704385E-16
  84548.7265625 2.8592113E-16
  84633.3203125 2.8480443E-16
  84717.9921875 2.836921E-16
  84802.75      2.825835E-16
  84887.59375   2.814773E-16
  84972.53125   2.8038085E-16
  85057.546875  2.792865E-16
  85142.6328125 2.7819527E-16
  85227.8359375 2.7711098E-16
  85313.1015625 2.7602877E-16
  85398.453125  2.749526E-16
  85483.890625  2.7387672E-16
  85569.4140625 2.72807E-16 
  85655.03125   2.71743E-16 
  85740.7265625 2.7067978E-16
  85826.515625  2.6962141E-16
  85912.3828125 2.6856712E-16
  85998.34375   2.675193E-16
  86084.375     2.664763E-16
  86170.5078125 2.6543495E-16
  86256.71875   2.64398E-16 
  86343.015625  2.6336396E-16
  86429.40625   2.6232634E-16
  86515.875     2.6124172E-16
  86602.4453125 2.6000102E-16
  86689.078125  2.5885515E-16
  86775.8203125 2.5806778E-16
  86862.6328125 2.572188E-16
  86949.53125   2.562439E-16
  87036.53125   2.5524507E-16
  87123.609375  2.5424716E-16
  87210.7734375 2.5325004E-16
  87298.03125   2.5225928E-16
  87385.375     2.5126086E-16
  87472.8125    2.501304E-16
  87560.3125    2.4850962E-16
  87647.921875  2.471814E-16
  87735.625     2.4690264E-16
  87823.3984375 2.4634995E-16
  87911.2578125 2.4544394E-16
  87999.2109375 2.4448963E-16
  88087.2578125 2.435363E-16
  88175.3984375 2.4258653E-16
  88263.609375  2.4163838E-16
  88351.921875  2.4069542E-16
  88440.3203125 2.3975376E-16
  88528.8046875 2.388137E-16
  88617.3671875 2.378766E-16
  88706.03125   2.369388E-16
  88794.78125   2.360122E-16
  88883.6171875 2.350989E-16
  88972.5546875 2.3418396E-16
  89061.5625    2.3327147E-16
  89150.671875  2.3236178E-16
  89239.875     2.314538E-16
  89329.1484375 2.3054863E-16
  89418.53125   2.2964696E-16
  89507.984375  2.287507E-16
  89597.5390625 2.278557E-16
  89687.1875    2.269659E-16
  89776.9140625 2.2607773E-16
  89866.7421875 2.2519276E-16
  89956.65625   2.2431352E-16
  90046.6484375 2.2343797E-16
  90136.7421875 2.225647E-16
  90226.9296875 2.2169518E-16
  90317.1953125 2.2082595E-16
  90407.5546875 2.199577E-16
  90498.015625  2.1909336E-16
  90588.5546875 2.1824161E-16
  90679.1875    2.173935E-16
  90769.9140625 2.1654632E-16
  90860.7265625 2.1569784E-16
  90951.6328125 2.1485425E-16
  91042.6328125 2.140155E-16
  91133.71875   2.1317917E-16
  91224.8984375 2.1234366E-16
  91316.171875  2.1151057E-16
  91407.5234375 2.106827E-16
  91498.984375  2.0985984E-16
  91590.5234375 2.0904137E-16
  91682.171875  2.0822483E-16
  91773.890625  2.0741005E-16
  91865.71875   2.0659885E-16
  91957.625     2.057909E-16
  92049.625     2.0498781E-16
  92141.7265625 2.0418424E-16
  92233.90625   2.0338762E-16
  92326.1953125 2.0259264E-16
  92418.5703125 2.0179815E-16
  92511.03125   2.0100186E-16
  92603.578125  2.0020655E-16
  92696.234375  1.9942648E-16
  92788.96875   1.9865582E-16
  92881.8046875 1.978835E-16
  92974.734375  1.971117E-16
  93067.7578125 1.9634004E-16
  93160.875     1.9557067E-16
  93254.078125  1.9480647E-16
  93347.3828125 1.940439E-16
  93440.7734375 1.9328215E-16
  93534.2578125 1.9252687E-16
  93627.84375   1.917724E-16
  93721.5234375 1.9100854E-16
  93815.2890625 1.901638E-16
  93909.1484375 1.8918695E-16
  94003.109375  1.8846928E-16
  94097.1484375 1.8795906E-16
  94191.296875  1.87308E-16 
  94285.5390625 1.8658352E-16
  94379.875     1.8585611E-16
  94474.296875  1.851305E-16
  94568.8125    1.8440521E-16
  94663.4296875 1.8368186E-16
  94758.140625  1.8296434E-16
  94852.9453125 1.822491E-16
  94947.84375   1.8153597E-16
  95042.8515625 1.808225E-16
  95137.9453125 1.8010563E-16
  95233.125     1.7939087E-16
  95328.40625   1.7869442E-16
  95423.78125   1.7800788E-16
  95519.25      1.77315E-16 
  95614.8203125 1.7662179E-16
  95710.4765625 1.7592892E-16
  95806.234375  1.7524253E-16
  95902.09375   1.7455695E-16
  95998.0390625 1.7387461E-16
  96094.0859375 1.7319387E-16
  96190.21875   1.7251639E-16
  96286.46875   1.7183972E-16
  96382.8046875 1.7116743E-16
  96479.2421875 1.7049886E-16
  96575.765625  1.6983029E-16
  96672.3828125 1.6916546E-16
  96769.109375  1.6850288E-16
  96865.9140625 1.6784616E-16
  96962.8359375 1.6718926E-16
  97059.8515625 1.6653528E-16
  97156.953125  1.658813E-16
  97254.1640625 1.6522861E-16
  97351.4609375 1.6458388E-16
  97448.8671875 1.6393961E-16
  97546.359375  1.6329779E-16
  97643.9453125 1.6266085E-16
  97741.6484375 1.6202435E-16
  97839.4375    1.6138819E-16
  97937.328125  1.6075644E-16
  98035.3125    1.6012838E-16
  98133.3984375 1.5950164E-16
  98231.578125  1.5887553E-16
  98329.8671875 1.582491E-16
  98428.234375  1.5761457E-16
  98526.71875   1.5698977E-16
  98625.2890625 1.5639009E-16
  98723.9765625 1.5578748E-16
  98822.7421875 1.5518213E-16
  98921.6171875 1.5457562E-16
  99020.578125  1.5397027E-16
  99119.65625   1.5336622E-16
  99218.828125  1.5276443E-16
  99318.09375   1.5216474E-16
  99417.4609375 1.5157235E-16
  99516.921875  1.5097948E-16
  99616.4921875 1.5038756E-16
  99716.15625   1.4979925E-16
  99815.921875  1.4921219E-16
  99915.7890625 1.4862694E-16
  100015.757812 1.4804718E-16
  100115.820312 1.4746695E-16
  100215.984375 1.4688995E-16
  100316.242187 1.4631458E-16
  100416.625    1.4574116E-16
  100517.085937 1.4516984E-16
  100617.65625  1.44599E-16 
  100718.320312 1.4403336E-16
  100819.09375  1.4347014E-16
  100919.953125 1.4291015E-16
  101020.921875 1.423497E-16
  101121.992187 1.4179183E-16
  101223.171875 1.4123704E-16
  101324.445312 1.4068356E-16
  101425.820312 1.4013218E-16
  101527.296875 1.3958354E-16
  101628.867187 1.3903653E-16
  101730.554687 1.3849276E-16
  101832.335937 1.379485E-16
  101934.210937 1.374088E-16
  102036.203125 1.3687233E-16
  102138.289062 1.3633342E-16
  102240.476562 1.3579824E-16
  102342.773437 1.3526533E-16
  102445.15625  1.3473046E-16
  102547.671875 1.3418703E-16
  102650.257812 1.3364651E-16
  102752.953125 1.3314132E-16
  102855.765625 1.3263321E-16
  102958.671875 1.3211862E-16
  103061.6875   1.3160191E-16
  103164.796875 1.3108731E-16
  103268.007812 1.3057239E-16
  103371.328125 1.3006186E-16
  103474.75     1.2955327E-16
  103578.28125  1.2904646E-16
  103681.90625  1.2853996E-16
  103785.640625 1.2803541E-16
  103889.476562 1.2753297E-16
  103993.414062 1.2703103E-16
  104097.46875  1.2653427E-16
  104201.609375 1.2603944E-16
  104305.867187 1.255456E-16
  104410.226562 1.250532E-16
  104514.679687 1.2456211E-16
  104619.25     1.2407587E-16
  104723.921875 1.2358965E-16
  104828.710937 1.2309289E-16
  104933.585937 1.2252043E-16
  105038.578125 1.2186921E-16
  105143.664062 1.2145316E-16
  105248.859375 1.2113905E-16
  105354.15625  1.2070793E-16
  105459.5625   1.2023872E-16
  105565.078125 1.1976788E-16
  105670.695312 1.1929785E-16
  105776.414062 1.1883027E-16
  105882.25     1.1836429E-16
  105988.1875   1.17898E-16 
  106094.226562 1.1743478E-16
  106200.375    1.1697692E-16
  106306.625    1.165223E-16
  106412.984375 1.1606442E-16
  106519.445312 1.156098E-16
  106626.03125  1.1515597E-16
  106732.703125 1.1470459E-16
  106839.492187 1.1425484E-16
  106946.382812 1.138067E-16
  107053.390625 1.1336099E-16
  107160.484375 1.1291528E-16
  107267.703125 1.1247361E-16
  107375.023437 1.120339E-16
  107482.453125 1.1159401E-16
  107589.992187 1.1115707E-16
  107697.632812 1.1072075E-16
  107805.382812 1.10283154E-16
  107913.234375 1.09838256E-16
  108021.210937 1.093812E-16
  108129.28125  1.0895007E-16
  108237.46875  1.0854811E-16
  108345.757812 1.0813563E-16
  108454.15625  1.07714235E-16
  108562.664062 1.0729235E-16
  108671.289062 1.0687338E-16
  108780.0      1.06451984E-16
  108888.84375  1.0603659E-16
  108997.789062 1.0562101E-16
  109106.835937 1.05207236E-16
  109216.0      1.0479637E-16
  109325.273437 1.0438308E-16
  109434.648437 1.0397383E-16
  109544.140625 1.0356783E-16
  109653.734375 1.03161016E-16
  109763.445312 1.02755823E-16
  109873.257812 1.0235387E-16
  109983.195312 1.0195273E-16
  110093.226562 1.01552084E-16
  110203.375    1.0115288E-16
  110313.640625 1.0075579E-16
  110424.015625 1.0035838E-16
  110534.484375 9.996405E-17
  110645.070312 9.957101E-17
  110755.773437 9.918203E-17
  110866.585937 9.879628E-17
  110977.507812 9.840925E-17
  111088.539062 9.802431E-17
  111199.695312 9.763938E-17
  111310.929687 9.725624E-17
  111422.296875 9.6873246E-17
  111533.789062 9.649431E-17
  111645.375    9.6113914E-17
  111757.070312 9.573709E-17
  111868.882812 9.53635E-17 
  111980.8125   9.499073E-17
  112092.851562 9.461666E-17
  112204.992187 9.424518E-17
  112317.257812 9.3874345E-17
  112429.632812 9.35053E-17 
  112542.117187 9.313932E-17
  112654.71875  9.2773844E-17
  112767.421875 9.2407225E-17
  112880.25     9.2027966E-17
  112993.1875   9.153638E-17
  113106.234375 9.097398E-17
  113219.398437 9.0742216E-17
  113332.679687 9.05696E-17 
  113446.0625   9.025192E-17
  113559.5625   8.9902654E-17
  113673.179687 8.955013E-17
  113786.90625  8.919811E-17
  113900.757812 8.884883E-17
  114014.710937 8.849907E-17
  114128.78125  8.815384E-17
  114242.96875  8.7805864E-17
  114357.273437 8.746145E-17
  114471.6875   8.711898E-17
  114586.21875  8.677587E-17
  114700.859375 8.643551E-17
  114815.609375 8.6097094E-17
  114930.492187 8.5756726E-17
  115045.476562 8.54201E-17 
  115160.578125 8.508217E-17
  115275.789062 8.472803E-17
  115391.132812 8.4363846E-17
  115506.578125 8.4042774E-17
  115622.132812 8.374617E-17
  115737.820312 8.3428504E-17
  115853.617187 8.310273E-17
  115969.53125  8.2773224E-17
  116085.554687 8.24468E-17 
  116201.695312 8.2124596E-17
  116317.960937 8.1804497E-17
  116434.335937 8.14839E-17 
  116550.828125 8.11638E-17 
  116667.4375   8.084743E-17
  116784.164062 8.052732E-17
  116901.0      8.0211274E-17
  117017.96875  7.9897667E-17
  117135.039062 7.958485E-17
  117252.234375 7.927091E-17
  117369.546875 7.8960855E-17
  117486.96875  7.864886E-17
  117604.515625 7.834091E-17
  117722.1875   7.803264E-17
  117839.960937 7.772291E-17
  117957.859375 7.741465E-17
  118075.875    7.71135E-17 
  118194.007812 7.681172E-17
  118312.265625 7.651155E-17
  118430.632812 7.6213166E-17
  118549.125    7.591381E-17
  118667.734375 7.5615266E-17
  118786.460937 7.5318176E-17
  118905.304687 7.502158E-17
  119024.265625 7.472627E-17
  119143.351562 7.443243E-17
  119262.554687 7.413745E-17
  119381.882812 7.384896E-17
  119501.320312 7.356078E-17
  119620.882812 7.327148E-17
  119740.5625   7.2983787E-17
  119860.367187 7.2697403E-17
  119980.28125  7.2412145E-17
  120100.320312 7.2128515E-17
  120220.484375 7.184488E-17
  120340.757812 7.156124E-17
  120461.164062 7.128166E-17
  120581.679687 7.100159E-17
  120702.328125 7.0721686E-17
  120823.085937 7.044486E-17
  120943.96875  7.016528E-17
  121064.976562 6.988974E-17
  121186.101562 6.9616156E-17
  121307.359375 6.934241E-17
  121428.710937 6.907045E-17
  121550.203125 6.8797346E-17
  121671.820312 6.852716E-17
  121793.546875 6.825845E-17
  121915.40625  6.799102E-17
  122037.382812 6.772553E-17
  122159.46875  6.7457783E-17
  122281.695312 6.719036E-17
  122404.03125  6.692747E-17
  122526.515625 6.6664094E-17
  122649.085937 6.640072E-17
  122771.804687 6.613929E-17
  122894.632812 6.5879966E-17
  123017.59375  6.562032E-17
  123140.671875 6.5355646E-17
  123263.875    6.5100054E-17
  123387.195312 6.4848346E-17
  123510.648437 6.457687E-17
  123634.226562 6.4200856E-17
  123757.914062 6.3763244E-17
  123881.734375 6.354769E-17
  124005.679687 6.346146E-17
  124129.75     6.331591E-17
  124253.9375   6.308933E-17
  124378.25     6.284265E-17
  124502.695312 6.259743E-17
  124627.257812 6.235156E-17
  124751.953125 6.2108446E-17
  124876.765625 6.1863706E-17
  125001.695312 6.1620595E-17
  125126.765625 6.1377476E-17
  125251.960937 6.1135655E-17
  125377.257812 6.0891246E-17
  125502.710937 6.061442E-17
  125628.273437 6.028929E-17
  125753.960937 6.0002093E-17
  125879.789062 5.9795934E-17
  126005.726562 5.964359E-17
  126131.789062 5.945687E-17
  126257.992187 5.923483E-17
  126384.304687 5.900468E-17
  126510.757812 5.8771606E-17
  126637.335937 5.854065E-17
  126764.023437 5.831374E-17
  126890.859375 5.808456E-17
  127017.804687 5.7857174E-17
  127144.898437 5.763027E-17
  127272.101562 5.7403357E-17
  127399.4375   5.7178397E-17
  127526.898437 5.6951974E-17
  127654.484375 5.672912E-17
  127782.203125 5.650626E-17
  127910.046875 5.628308E-17
  128038.023437 5.6062504E-17
  128166.132812 5.584142E-17
  128294.359375 5.562213E-17
  128422.71875  5.5403327E-17
  128551.203125 5.5186956E-17
  128679.820312 5.496815E-17
  128808.5625   5.4753398E-17
  128937.429687 5.4538165E-17
  129066.445312 5.4323896E-17
  129195.5625   5.4109146E-17
  129324.828125 5.3897633E-17
  129454.21875  5.3685646E-17
  129583.734375 5.3474616E-17
  129713.382812 5.3263917E-17
  129843.171875 5.305354E-17
  129973.070312 5.2846568E-17
  130103.109375 5.2638138E-17
  130233.273437 5.243117E-17
  130363.578125 5.2224524E-17
  130494.007812 5.201787E-17
  130624.554687 5.1811712E-17
  130755.257812 5.160863E-17
  130886.070312 5.1405708E-17
  131017.023437 5.1203923E-17
  131148.109375 5.100457E-17
  131279.3125   5.0805536E-17
  131410.65625  5.060343E-17
  131542.140625 5.0404886E-17
  131673.75     5.0206015E-17
  131805.5      5.0005364E-17
  131937.375    4.980633E-17
  132069.359375 4.9612652E-17
  132201.5      4.942189E-17
  132333.765625 4.9227398E-17
  132466.171875 4.903323E-17
  132598.703125 4.8841167E-17
  132731.359375 4.864797E-17
  132864.15625  4.845753E-17
  132997.09375  4.826709E-17
  133130.15625  4.8078596E-17
  133263.34375  4.7888152E-17
  133396.671875 4.7699823E-17
  133530.140625 4.7511325E-17
  133663.734375 4.732494E-17
  133797.46875  4.7138548E-17
  133931.328125 4.6954593E-17
  134065.328125 4.6769503E-17
  134199.46875  4.6585383E-17
  134333.734375 4.6400776E-17
  134468.125    4.6218442E-17
  134602.65625  4.603805E-17
  134737.328125 4.58562E-17 
  134872.140625 4.567743E-17
  135007.078125 4.549558E-17
  135142.15625  4.531681E-17
  135277.359375 4.5138525E-17
  135412.71875  4.495862E-17
  135548.203125 4.478066E-17
  135683.796875 4.4606105E-17
  135819.546875 4.4433168E-17
  135955.4375   4.425764E-17
  136091.46875  4.4083406E-17
  136227.625    4.3909176E-17
  136363.921875 4.3738184E-17
  136500.359375 4.356476E-17
  136636.921875 4.3393773E-17
  136773.640625 4.322359E-17
  136910.484375 4.3053408E-17
  137047.4375   4.288323E-17
  137184.5625   4.2715478E-17
  137321.8125   4.2546918E-17
  137459.203125 4.2380466E-17
  137596.734375 4.2213042E-17
  137734.390625 4.204691E-17
  137872.203125 4.1880786E-17
  138010.140625 4.1717898E-17
  138148.21875  4.1552578E-17
  138286.4375   4.1389693E-17
  138424.796875 4.1227615E-17
  138563.296875 4.106554E-17
  138701.921875 4.0903463E-17
  138840.703125 4.0741385E-17
  138979.609375 4.058174E-17
  139118.65625  4.0421312E-17
  139257.84375  4.026026E-17
  139397.171875 4.0097775E-17
  139536.640625 3.9939916E-17
  139676.25     3.9786428E-17
  139815.984375 3.963161E-17
  139955.875    3.9476215E-17
  140095.90625  3.9321218E-17
  140236.0625   3.9166274E-17
  140376.359375 3.901157E-17
  140516.796875 3.88569E-17 
  140657.390625 3.870301E-17
  140798.125    3.855082E-17
  140938.984375 3.840009E-17
  141080.0      3.8249325E-17
  141221.140625 3.8098788E-17
  141362.453125 3.794916E-17
  141503.890625 3.779843E-17
  141645.46875  3.7639302E-17
  141787.1875   3.7461273E-17
  141929.03125  3.7309862E-17
  142071.03125  3.71938E-17 
  142213.171875 3.7060557E-17
  142355.453125 3.6915952E-17
  142497.890625 3.6771087E-17
  142640.453125 3.66264E-17 
  142783.171875 3.6482268E-17
  142926.015625 3.6338392E-17
  143069.015625 3.6195117E-17
  143212.15625  3.6052684E-17
  143355.4375   3.591111E-17
  143498.875    3.576999E-17
  143642.421875 3.5629223E-17
  143786.15625  3.548882E-17
  143930.0      3.5348998E-17
  144074.0      3.5209803E-17
  144218.140625 3.507139E-17
  144362.4375   3.4933187E-17
  144506.890625 3.4795663E-17
  144651.46875  3.465882E-17
  144796.1875   3.4522274E-17
  144941.046875 3.438634E-17
  145086.0625   3.4250988E-17
  145231.21875  3.4116062E-17
  145376.53125  3.3981698E-17
  145521.96875  3.3847953E-17
  145667.5625   3.371461E-17
  145813.296875 3.3581905E-17
  145959.203125 3.344957E-17
  146105.234375 3.331754E-17
  146251.40625  3.3185176E-17
  146397.71875  3.3053373E-17
  146544.203125 3.2922556E-17
  146690.8125   3.2793757E-17
  146837.578125 3.266599E-17
  146984.484375 3.2537596E-17
  147131.5625   3.2409264E-17
  147278.75     3.228187E-17
  147426.109375 3.2155015E-17
  147573.609375 3.2028595E-17
  147721.25     3.190274E-17
  147869.046875 3.177697E-17
  148016.984375 3.1651964E-17
  148165.09375  3.1527125E-17
  148313.328125 3.1403058E-17
  148461.703125 3.1279312E-17
  148610.234375 3.1156056E-17
  148758.921875 3.1033315E-17
  148907.75     3.0910945E-17
  149056.75     3.0789356E-17
  149205.875    3.0667963E-17
  149355.15625  3.0546513E-17
  149504.578125 3.042277E-17
  149654.15625  3.029849E-17
  149803.890625 3.0182087E-17
  149953.78125  3.006769E-17
  150103.796875 2.9950268E-17
  150253.984375 2.983233E-17
  150404.296875 2.971498E-17
  150554.796875 2.959775E-17
  150705.40625  2.9481217E-17
  150856.1875   2.9365253E-17
  151007.125    2.9249417E-17
  151158.203125 2.9134132E-17
  151309.453125 2.9019428E-17
  151460.828125 2.8905148E-17
  151612.359375 2.8791255E-17
  151764.046875 2.8677594E-17
  151915.90625  2.856443E-17
  152067.890625 2.8451347E-17
  152220.03125  2.8339307E-17
  152372.3125   2.82278E-17 
  152524.765625 2.8116402E-17
  152677.375    2.8004894E-17
  152830.125    2.7894115E-17
  152983.03125  2.7784064E-17
  153136.09375  2.767507E-17
  153289.296875 2.756693E-17
  153442.671875 2.745902E-17
  153596.1875   2.7350834E-17
  153749.859375 2.7243213E-17
  153903.6875   2.7135807E-17
  154057.671875 2.7028836E-17
  154211.8125   2.6922302E-17
  154366.09375  2.6816142E-17
  154520.53125  2.671068E-17
  154675.125    2.660533E-17
  154829.890625 2.6500577E-17
  154984.796875 2.63962E-17 
  155139.84375  2.6292065E-17
  155295.078125 2.6188535E-17
  155450.4375   2.6085179E-17
  155605.96875  2.5982499E-17
  155761.65625  2.5879987E-17
  155917.484375 2.5778042E-17
  156073.484375 2.5676532E-17
  156229.65625  2.5575233E-17
  156385.953125 2.5474503E-17
  156542.40625  2.5374017E-17
  156699.03125  2.5274097E-17
  156855.8125   2.517442E-17
  157012.75     2.5075115E-17
  157169.84375  2.4976442E-17
  157327.078125 2.4877948E-17
  157484.484375 2.4779762E-17
  157642.046875 2.4682272E-17
  157799.78125  2.4584946E-17
  157957.640625 2.44877E-17 
  158115.6875   2.4390534E-17
  158273.875    2.42941E-17 
  158432.234375 2.4199121E-17
  158590.75     2.4103982E-17
  158749.421875 2.4008957E-17
  158908.25     2.3914306E-17
  159067.234375 2.3819895E-17
  159226.359375 2.3725729E-17
  159385.6875   2.3632128E-17
  159545.15625  2.3539307E-17
  159704.78125  2.3446681E-17
  159864.546875 2.3353893E-17
  160024.5      2.3261541E-17
  160184.609375 2.3169433E-17
  160344.859375 2.3078023E-17
  160505.296875 2.2987389E-17
  160665.875    2.2897354E-17
  160826.625    2.280732E-17
  160987.53125  2.2717367E-17
  161148.59375  2.262782E-17
  161309.828125 2.253884E-17
  161471.21875  2.2449748E-17
  161632.78125  2.2361155E-17
  161794.484375 2.2270556E-17
  161956.359375 2.2164558E-17
  162118.390625 2.2048608E-17
  162280.609375 2.1979676E-17
  162442.953125 2.1918734E-17
  162605.484375 2.1837211E-17
  162768.171875 2.1751505E-17
  162931.015625 2.1665571E-17
  163094.03125  2.1580272E-17
  163257.203125 2.1495148E-17
  163420.546875 2.1410252E-17
  163584.046875 2.1325567E-17
  163747.71875  2.1239503E-17
  163911.546875 2.1145192E-17
  164075.53125  2.1050215E-17
  164239.6875   2.0976046E-17
  164404.015625 2.0904896E-17
  164568.5      2.0825883E-17
  164733.15625  2.074423E-17
  164897.96875  2.0662396E-17
  165062.953125 2.0580905E-17
  165228.078125 2.0499704E-17
  165393.40625  2.0418991E-17
  165558.875    2.0338358E-17
  165724.515625 2.0257886E-17
  165890.34375  2.0177011E-17
  166056.296875 2.0097106E-17
  166222.4375   2.0018581E-17
  166388.734375 1.9940216E-17
  166555.21875  1.9861609E-17
  166721.859375 1.9783196E-17
  166888.65625  1.9704994E-17
  167055.625    1.9627441E-17
  167222.765625 1.9550179E-17
  167390.078125 1.947316E-17
  167557.546875 1.939637E-17
  167725.1875   1.9319445E-17
  167892.984375 1.9242913E-17
  168060.984375 1.916711E-17
  168229.109375 1.9091534E-17
  168397.4375   1.90156E-17 
  168565.921875 1.8937155E-17
  168734.5625   1.8847934E-17
  168903.390625 1.8766862E-17
  169072.359375 1.870879E-17
  169241.53125  1.8643797E-17
  169410.84375  1.8571267E-17
  169580.34375  1.8497927E-17
  169750.015625 1.842496E-17
  169919.828125 1.8352302E-17
  170089.859375 1.8279967E-17
  170260.03125  1.8207812E-17
  170430.359375 1.8136011E-17
  170600.890625 1.8064293E-17
  170771.578125 1.7993173E-17
  170942.421875 1.7922102E-17
  171113.453125 1.7851403E-17
  171284.65625  1.7781063E-17
  171456.015625 1.7710964E-17
  171627.5625   1.7641061E-17
  171799.28125  1.7571368E-17
  171971.171875 1.7502048E-17
  172143.21875  1.7432954E-17
  172315.453125 1.736412E-17
  172487.84375  1.7295594E-17
  172660.421875 1.722749E-17
  172833.1875   1.7159612E-17
  173006.078125 1.7091914E-17
  173179.1875   1.7024279E-17
  173352.453125 1.6957178E-17
  173525.875    1.6890193E-17
  173699.5      1.6823466E-17
  173873.28125  1.6757177E-17
  174047.25     1.6691E-17  
  174221.390625 1.6625085E-17
  174395.6875   1.6559636E-17
  174570.1875   1.6494367E-17
  174744.8125   1.6429132E-17
  174919.671875 1.6364139E-17
  175094.671875 1.6299308E-17
  175269.84375  1.6235077E-17
  175445.203125 1.6171025E-17
  175620.734375 1.610728E-17
  175796.453125 1.6043583E-17
  175972.328125 1.597945E-17
  176148.390625 1.5915704E-17
  176324.625    1.5853793E-17
  176501.03125  1.5791927E-17
  176677.640625 1.5729724E-17
  176854.390625 1.5667729E-17
  177031.328125 1.5605929E-17
  177208.453125 1.5544113E-17
  177385.75     1.5482588E-17
  177563.21875  1.5421371E-17
  177740.875    1.5360238E-17
  177918.71875  1.5299782E-17
  178096.71875  1.5239603E-17
  178274.90625  1.5179634E-17
  178453.265625 1.5119795E-17
  178631.796875 1.5060233E-17
  178810.53125  1.5000864E-17
  178989.421875 1.4941674E-17
  179168.515625 1.4882516E-17
  179347.765625 1.4823632E-17
  179527.1875   1.4765204E-17
  179706.8125   1.4707051E-17
  179886.625    1.4648914E-17
  180066.59375  1.4591133E-17
  180246.765625 1.4533434E-17
  180427.09375  1.4476026E-17
  180607.59375  1.4418766E-17
  180788.296875 1.4361988E-17
  180969.1875   1.4305278E-17
  181150.234375 1.4248907E-17
  181331.484375 1.4192586E-17
  181512.90625  1.4136508E-17
  181694.515625 1.4080786E-17
  181876.28125  1.4025047E-17
  182058.25     1.3969765E-17
  182240.40625  1.3914625E-17
  182422.734375 1.3859713E-17
  182605.25     1.3805013E-17
  182787.9375   1.3750312E-17
  182970.828125 1.3696211E-17
  183153.875    1.36420934E-17
  183337.125    1.3588398E-17
  183520.5625   1.3534638E-17
  183704.171875 1.34813474E-17
  183887.96875  1.342791E-17
  184071.9375   1.3375024E-17
  184256.109375 1.3322122E-17
  184440.453125 1.3269642E-17
  184624.984375 1.32169995E-17
  184809.703125 1.3164891E-17
  184994.609375 1.3112703E-17
  185179.6875   1.3061E-17  
  185364.96875  1.3009491E-17
  185550.421875 1.2958081E-17
  185736.078125 1.29065405E-17
  185921.890625 1.2853542E-17
  186107.921875 1.2796945E-17
  186294.109375 1.274602E-17
  186480.5      1.2701514E-17
  186667.078125 1.2653863E-17
  186853.84375  1.2604026E-17
  187040.78125  1.2554154E-17
  187227.921875 1.2504721E-17
  187415.25     1.2455514E-17
  187602.75     1.2406453E-17
  187790.453125 1.2357101E-17
  187978.328125 1.2308235E-17
  188166.390625 1.22596124E-17
  188354.65625  1.221086E-17
  188543.125    1.2162609E-17
  188731.765625 1.2114796E-17
  188920.578125 1.20671134E-17
  189109.59375  1.2019528E-17
  189298.796875 1.1972088E-17
  189488.171875 1.1924599E-17
  189677.765625 1.1876268E-17
  189867.546875 1.1828569E-17
  190057.515625 1.1782733E-17
  190247.640625 1.1735812E-17
  190437.984375 1.1680755E-17
  190628.515625 1.1616086E-17
  190819.234375 1.1577707E-17
  191010.171875 1.1548938E-17
  191201.265625 1.1507251E-17
  191392.546875 1.1462226E-17
  191584.046875 1.1416845E-17
  191775.75     1.1371836E-17
  191967.59375  1.13268596E-17
  192159.671875 1.1282127E-17
  192351.921875 1.12375555E-17
  192544.375    1.1193179E-17
  192737.015625 1.1148819E-17
  192929.84375  1.1104847E-17
  193122.859375 1.1061055E-17
  193316.09375  1.1017294E-17
  193509.5      1.097376E-17
  193703.125    1.0930534E-17
  193896.921875 1.0887227E-17
  194090.90625  1.0844196E-17
  194285.078125 1.0801489E-17
  194479.46875  1.0758571E-17
  194674.046875 1.0716188E-17
  194868.828125 1.0673643E-17
  195063.78125  1.0631422E-17
  195258.953125 1.05893635E-17
  195454.3125   1.0547628E-17
  195649.859375 1.0506088E-17
  195845.59375  1.0464531E-17
  196041.5625   1.0423202E-17
  196237.703125 1.0382067E-17
  196434.03125  1.03410125E-17
  196630.546875 1.03002184E-17
  196827.28125  1.0259488E-17
  197024.203125 1.0218969E-17
  197221.328125 1.0178629E-17
  197418.65625  1.0138336E-17
  197616.15625  1.0098189E-17
  197813.875    1.005848E-17
  198011.796875 1.0018739E-17
  198209.921875 9.979031E-18
  198408.21875  9.939549E-18
  198606.71875  9.900244E-18
  198805.421875 9.861314E-18
  199004.34375  9.822286E-18
  199203.421875 9.783517E-18
  199402.71875  9.744813E-18
  199602.21875  9.70632E-18 
  199801.953125 9.6678264E-18
  200001.828125 9.629577E-18
  200201.9375   9.591489E-18
  200402.25     9.55353E-18 
  200602.75     9.515686E-18
  200803.453125 9.4780025E-18
  201004.34375  9.440677E-18
  201205.46875  9.403398E-18
  201406.765625 9.366364E-18
  201608.265625 9.3294426E-18
  201809.984375 9.292538E-18
  202011.875    9.2557466E-18
  202214.0      9.2191984E-18
  202416.3125   9.182731E-18
  202618.84375  9.1465074E-18
  202821.546875 9.110396E-18
  203024.484375 9.074383E-18
  203227.59375  9.038451E-18
  203430.921875 9.002665E-18
  203634.4375   8.967007E-18
  203838.203125 8.931675E-18
  204042.140625 8.8964234E-18
  204246.265625 8.8611715E-18
  204450.625    8.826163E-18
  204655.1875   8.791268E-18
  204859.953125 8.756389E-18
  205064.90625  8.7215426E-18
  205270.078125 8.68702E-18 
  205475.4375   8.6528535E-18
  205681.015625 8.618866E-18
  205886.796875 8.58483E-18 
  206092.796875 8.550794E-18
  206298.984375 8.5170825E-18
  206505.390625 8.483452E-18
  206712.0      8.44982E-18 
  206918.796875 8.416464E-18
  207125.828125 8.383207E-18
  207333.0625   8.3499805E-18
  207540.5      8.317112E-18
  207748.140625 8.284259E-18
  207956.0      8.2514385E-18
  208164.046875 8.218699E-18
  208372.3125   8.186203E-18
  208580.8125   8.153787E-18
  208789.484375 8.121372E-18
  208998.375    8.088713E-18
  209207.484375 8.055326E-18
  209416.796875 8.023802E-18
  209626.3125   7.993494E-18
  209836.046875 7.962293E-18
  210045.984375 7.9307695E-18
  210256.140625 7.899489E-18
  210466.5      7.868159E-18
  210677.078125 7.837089E-18
  210887.84375  7.806132E-18
  211098.84375  7.775289E-18
  211310.03125  7.744495E-18
  211521.453125 7.713944E-18
  211733.078125 7.68336E-18 
  211944.9375   7.653132E-18
  212156.96875  7.622775E-18
  212369.234375 7.59271E-18 
  212581.703125 7.562726E-18
  212794.40625  7.532742E-18
  213007.296875 7.502806E-18
  213220.421875 7.473227E-18
  213433.75     7.443649E-18
  213647.28125  7.414263E-18
  213861.046875 7.384814E-18
  214075.0      7.355511E-18
  214289.203125 7.326337E-18
  214503.578125 7.297536E-18
  214718.203125 7.268719E-18
  214933.015625 7.239999E-18
  215148.0625   7.21123E-18 
  215363.328125 7.1826566E-18
  215578.78125  7.154293E-18
  215794.484375 7.12606E-18 
  216010.375    7.0979715E-18
  216226.5      7.0699805E-18
  216442.828125 7.042023E-18
  216659.375    7.014065E-18
  216876.15625  6.986333E-18
  217093.125    6.9585535E-18
  217310.34375  6.9311945E-18
  217527.765625 6.903641E-18
  217745.375    6.8764935E-18
  217963.234375 6.84907E-18 
  218181.3125   6.82176E-18 
  218399.609375 6.7945637E-18
  218618.125    6.767821E-18
  218836.84375  6.7413537E-18
  219055.78125  6.7147896E-18
  219274.953125 6.688241E-18
  219494.328125 6.6619038E-18
  219713.921875 6.6355664E-18
  219933.75     6.6092285E-18
  220153.8125   6.5830205E-18
  220374.0625   6.556959E-18
  220594.5625   6.531027E-18
  220815.265625 6.505289E-18
  221036.1875   6.479535E-18
  221257.3125   6.45383E-18 
  221478.703125 6.42827E-18 
  221700.28125  6.402743E-18
  221922.078125 6.377216E-18
  222144.140625 6.352094E-18
  222366.375    6.327296E-18
  222588.859375 6.302255E-18
  222811.5625   6.277101E-18
  223034.46875  6.2505047E-18
  223257.640625 6.2185106E-18
  223481.0      6.1889314E-18
  223704.59375  6.172302E-18
  223928.390625 6.1532584E-18
  224152.4375   6.1295626E-18
  224376.71875  6.1054945E-18
  224601.21875  6.081183E-18
  224825.90625  6.0572765E-18
  225050.84375  6.03337E-18 
  225276.015625 6.009464E-18
  225501.40625  5.9855575E-18
  225727.015625 5.961846E-18
  225952.84375  5.938345E-18
  226178.921875 5.9148435E-18
  226405.203125 5.89131E-18 
  226631.734375 5.8679713E-18
  226858.484375 5.8447453E-18
  227085.453125 5.8216496E-18
  227312.625    5.7985535E-18
  227540.0625   5.7758304E-18
  227767.734375 5.752929E-18
  227995.59375  5.7300435E-18
  228223.71875  5.707353E-18
  228452.0625   5.684857E-18
  228680.609375 5.662344E-18
  228909.40625  5.6398808E-18
  229138.4375   5.617595E-18
  229367.6875   5.5953094E-18
  229597.15625  5.5733966E-18
  229826.875    5.5511433E-18
  230056.828125 5.5292305E-18
  230286.984375 5.5073503E-18
  230517.40625  5.48547E-18 
  230748.015625 5.463784E-18
  230978.90625  5.4421143E-18
  231209.984375 5.4206395E-18
  231441.3125   5.399164E-18
  231672.84375  5.3778833E-18
  231904.640625 5.3564085E-18
  232136.6875   5.3353385E-18
  232368.921875 5.314236E-18
  232601.40625  5.293166E-18
  232834.125    5.2721287E-18
  233067.0625   5.251431E-18
  233300.25     5.2305877E-18
  233533.671875 5.209891E-18
  233767.328125 5.189226E-18
  234001.21875  5.168772E-18
  234235.328125 5.1483014E-18
  234469.6875   5.1278477E-18
  234704.28125  5.1075557E-18
  234939.078125 5.087491E-18
  235174.140625 5.0672634E-18
  235409.4375   5.0470036E-18
  235644.953125 5.0271492E-18
  235880.71875  5.007263E-18
  236116.71875  4.9871976E-18
  236352.953125 4.9670678E-18
  236589.4375   4.947489E-18
  236826.125    4.928202E-18
  237063.078125 4.908801E-18
  237300.25     4.889546E-18
  237537.671875 4.8700974E-18
  237775.328125 4.8508584E-18
  238013.234375 4.8316037E-18
  238251.359375 4.8122845E-18
  238489.75     4.792219E-18
  238728.359375 4.772251E-18
  238967.1875   4.7540986E-18
  239206.28125  4.736384E-18
  239445.59375  4.718069E-18
  239685.171875 4.6993007E-18
  239924.96875  4.680662E-18
  240165.015625 4.6622013E-18
  240405.296875 4.643757E-18
  240645.828125 4.625329E-18
  240886.59375  4.606917E-18
  241127.609375 4.5886835E-18
  241368.84375  4.570628E-18
  241610.328125 4.5525887E-18
  241852.0625   4.534355E-18
  242094.046875 4.5165265E-18
  242336.25     4.4986983E-18
  242578.71875  4.4808696E-18
  242821.40625  4.4630414E-18
  243064.34375  4.4454076E-18
  243307.53125  4.42779E-18 
  243550.984375 4.410334E-18
  243794.65625  4.3928618E-18
  244038.5625   4.375439E-18
  244282.71875  4.3580643E-18
  244527.109375 4.340836E-18
  244771.78125  4.323623E-18
  245016.65625  4.3064268E-18
  245261.796875 4.2893765E-18
  245507.1875   4.272358E-18
  245752.828125 4.2555022E-18
  245998.6875   4.2387274E-18
  246244.828125 4.2219034E-18
  246491.171875 4.2050963E-18
  246737.8125   4.1884836E-18
  246984.65625  4.1718705E-18
  247231.765625 4.1554522E-18
  247479.109375 4.139018E-18
  247726.734375 4.1226314E-18
  247974.578125 4.106197E-18
  248222.671875 4.0899896E-18
  248471.015625 4.073782E-18
  248719.609375 4.057574E-18
  248968.453125 4.0415482E-18
  249217.546875 4.025543E-18
  249466.890625 4.009573E-18
  249716.484375 3.9935974E-18
  249966.3125   3.9777383E-18
  250216.421875 3.9620363E-18
  250466.75     3.9463956E-18
  250717.34375  3.9307796E-18
  250968.1875   3.915217E-18
  251219.265625 3.899731E-18
  251470.640625 3.884272E-18
  251722.21875  3.8688714E-18
  251974.078125 3.8535342E-18
  252226.171875 3.8382748E-18
  252478.515625 3.8230638E-18
  252731.109375 3.8079226E-18
  252983.984375 3.792869E-18
  253237.09375  3.7778687E-18
  253490.46875  3.7629013E-18
  253744.078125 3.7479897E-18
  253997.921875 3.733136E-18
  254252.0625   3.7183464E-18
  254506.4375   3.703613E-18
  254761.078125 3.6889406E-18
  255015.96875  3.6743292E-18
  255271.125    3.6597796E-18
  255526.515625 3.645293E-18
  255782.15625  3.630828E-18
  256038.0625   3.6164597E-18
  256294.234375 3.602116E-18
  256550.65625  3.58785E-18 
  256807.34375  3.573644E-18
  257064.265625 3.559482E-18
  257321.453125 3.545381E-18
  257578.921875 3.5313366E-18
  257836.609375 3.517337E-18
  258094.59375  3.5033986E-18
  258352.796875 3.4895193E-18
  258611.296875 3.4756798E-18
  258870.015625 3.4619194E-18
  259129.03125  3.4482033E-18
  259388.28125  3.4345449E-18
  259647.796875 3.4209096E-18
  259907.5625   3.4073319E-18
  260167.625    3.3938184E-18
  260427.9375   3.3803625E-18
  260688.484375 3.3669733E-18
  260949.296875 3.3536396E-18
  261210.375    3.340325E-18
  261471.71875  3.3267994E-18
  261733.3125   3.313242E-18
  261995.1875   3.3003485E-18
  262257.3125   3.2876368E-18
  262519.6875   3.274679E-18
  262782.34375  3.2617324E-18
  263045.28125  3.2488031E-18
  263308.40625  3.2359376E-18
  263571.875    3.223111E-18
  263835.59375  3.2103394E-18
  264099.53125  3.1976226E-18
  264363.78125  3.18495E-18 
  264628.28125  3.1723324E-18
  264893.0      3.1597534E-18
  265158.0625   3.14723E-18 
  265423.34375  3.134742E-18
  265688.90625  3.1223268E-18
  265954.75     3.1099603E-18
  266220.84375  3.0976214E-18
  266487.15625  3.0853003E-18
  266753.78125  3.0729534E-18
  267020.65625  3.060749E-18
  267287.84375  3.0487276E-18
  267555.25     3.0367128E-18
  267822.9375   3.0246788E-18
  268090.875    3.0127012E-18
  268359.125    3.000748E-18
  268627.59375  2.9888728E-18
  268896.375    2.9770201E-18
  269165.40625  2.965229E-18
  269434.71875  2.9534575E-18
  269704.28125  2.9417475E-18
  269974.125    2.9300745E-18
  270244.21875  2.918465E-18
  270514.5625   2.9068767E-18
  270785.25     2.8953447E-18
  271056.1875   2.8838699E-18
  271327.34375  2.8724482E-18
  271598.8125   2.8610819E-18
  271870.5625   2.8497365E-18
  272142.5625   2.8384477E-18
  272414.84375  2.8271964E-18
  272687.375    2.815992E-18
  272960.1875   2.8048135E-18
  273233.28125  2.7936902E-18
  273506.6875   2.7826205E-18
  273780.3125   2.771583E-18
  274054.25     2.7605616E-18
  274328.4375   2.749641E-18
  274602.90625  2.7387381E-18
  274877.65625  2.7278791E-18
  275152.65625  2.7170929E-18
  275427.96875  2.7063147E-18
  275703.5      2.6955934E-18
  275979.34375  2.6848963E-18
  276255.46875  2.6742398E-18
  276531.84375  2.663627E-18
  276808.5      2.6530482E-18
  277085.46875  2.6425133E-18
  277362.6875   2.6320107E-18
  277640.1875   2.6209408E-18
  277917.96875  2.6077557E-18
  278196.03125  2.5960538E-18
  278474.375    2.5888383E-18
  278752.96875  2.5801411E-18
  279031.875    2.5700892E-18
  279311.03125  2.5598816E-18
  279590.46875  2.5497437E-18
  279870.21875  2.5396382E-18
  280150.25     2.529549E-18
  280430.53125  2.5195198E-18
  280711.09375  2.5095438E-18
  280991.9375   2.499581E-18
  281273.0625   2.489673E-18
  281554.5      2.4797994E-18
  281836.1875   2.4699727E-18
  282118.15625  2.460167E-18
  282400.40625  2.450423E-18
  282682.96875  2.4406986E-18
  282965.78125  2.4310096E-18
  283248.875    2.421382E-18
  283532.28125  2.4117565E-18
  283815.9375   2.402168E-18
  284099.90625  2.3926298E-18
  284384.15625  2.3831888E-18
  284668.65625  2.3737478E-18
  284953.46875  2.3643264E-18
  285238.5625   2.3549437E-18
  285523.9375   2.3456032E-18
  285809.625    2.3363082E-18
  286095.5625   2.3270425E-18
  286381.84375  2.3178231E-18
  286668.375    2.3086092E-18
  286955.1875   2.2994602E-18
  287242.25     2.2903304E-18
  287529.625    2.2812508E-18
  287817.3125   2.2720852E-18
  288105.28125  2.2624775E-18
  288393.53125  2.252811E-18
  288682.0625   2.2445161E-18
  288970.90625  2.236242E-18
  289260.0      2.2274688E-18
  289549.40625  2.2185253E-18
  289839.09375  2.2096403E-18
  290129.09375  2.2009775E-18
  290419.375    2.1923547E-18
  290709.9375   2.1836836E-18
  291000.78125  2.1750127E-18
  291291.9375   2.166382E-18
  291583.375    2.1578082E-18
  291875.09375  2.1492394E-18
  292167.09375  2.1407093E-18
  292459.40625  2.1322195E-18
  292752.03125  2.123756E-18
  293044.9375   2.115341E-18
  293338.125    2.1069516E-18
  293631.625    2.0985855E-18
  293925.375    2.090258E-18
  294219.46875  2.0819838E-18
  294513.8125   2.0737197E-18
  294808.46875  2.0654894E-18
  295103.40625  2.0572917E-18
  295398.6875   2.0491392E-18
  295694.21875  2.0409997E-18
  295990.0625   2.0328747E-18
  296286.1875   2.024792E-18
  296582.625    2.0167774E-18
  296879.34375  2.008795E-18
  297176.40625  2.000816E-18
  297473.75     1.9928905E-18
  297771.34375  1.9849485E-18
  298069.25     1.9765334E-18
  298367.46875  1.9673358E-18
  298666.0      1.9596858E-18
  298964.8125   1.9532464E-18
  299263.9375   1.9458638E-18
  299563.34375  1.938157E-18
  299863.0625   1.9301958E-18
  300163.0625   1.9221566E-18
  300463.375    1.9147579E-18
  300764.0      1.9075002E-18
  301064.90625  1.9000318E-18
  301366.09375  1.892513E-18
  301667.625    1.884999E-18
  301969.46875  1.8775356E-18
  302271.59375  1.8700848E-18
  302574.0      1.8626486E-18
  302876.71875  1.8552513E-18
  303179.75     1.8478965E-18
  303483.0625   1.8405625E-18
  303786.71875  1.833261E-18
  304090.65625  1.825995E-18
  304394.90625  1.818742E-18
  304699.4375   1.8115266E-18
  305004.3125   1.8043497E-18
  305309.4375   1.7971779E-18
  305614.9375   1.7900432E-18
  305920.6875   1.7829394E-18
  306226.75     1.7758616E-18
  306533.125    1.7687948E-18
  306839.8125   1.7617803E-18
  307146.8125   1.75479E-18 
  307454.09375  1.7478175E-18
  307761.71875  1.7408887E-18
  308069.65625  1.7340004E-18
  308377.84375  1.7271121E-18
  308686.375    1.7202612E-18
  308995.21875  1.7134328E-18
  309304.375    1.7066256E-18
  309613.84375  1.699859E-18
  309923.625    1.6931116E-18
  310233.6875   1.6863854E-18
  310544.0625   1.6796997E-18
  310854.75     1.6730271E-18
  311165.8125   1.6663819E-18
  311477.09375  1.659761E-18
  311788.71875  1.6531889E-18
  312100.6875   1.6466248E-18
  312412.9375   1.6400883E-18
  312725.5      1.6335775E-18
  313038.40625  1.6270913E-18
  313351.5625   1.620631E-18
  313665.0625   1.6141932E-18
  313978.9375   1.607783E-18
  314293.03125  1.6014086E-18
  314607.5      1.5950568E-18
  314922.25     1.588718E-18
  315237.34375  1.5824019E-18
  315552.75     1.576136E-18
  315868.4375   1.5698733E-18
  316184.46875  1.5636529E-18
  316500.8125   1.557434E-18
  316817.46875  1.551254E-18
  317134.4375   1.5450951E-18
  317451.75     1.5389686E-18
  317769.34375  1.532855E-18
  318087.28125  1.5267723E-18
  318405.53125  1.5207187E-18
  318724.0625   1.5146813E-18
  319042.96875  1.5085954E-18
